Lambda	Transmission_spectrum	Error_Transmission_spectrum
------	---------------------	---------------------------
5870.000000	1.002706	0.009125
5870.010000	0.994027	0.009073
5870.020000	0.996422	0.009097
5870.030000	0.998776	0.009127
5870.040000	0.993814	0.009095
5870.050000	0.989949	0.009064
5870.060000	0.999953	0.009119
5870.070000	1.014567	0.009194
5870.080000	1.011028	0.009173
5870.090000	0.999118	0.009112
5870.100000	0.992392	0.009084
5870.110000	0.993353	0.009091
5870.120000	1.009427	0.009177
5870.130000	1.014926	0.009199
5870.140000	0.995330	0.009086
5870.150000	0.986780	0.009049
5870.160000	0.998814	0.009123
5870.170000	1.005786	0.009157
5870.180000	1.003974	0.009151
5870.190000	1.000401	0.009135
5870.200000	0.992680	0.009098
5870.210000	0.988333	0.009085
5870.220000	0.994359	0.009119
5870.230000	1.001139	0.009145
5870.240000	1.000515	0.009136
5870.250000	0.999752	0.009133
5870.260000	0.997139	0.009121
5870.270000	0.990954	0.009095
5870.280000	0.991465	0.009100
5870.290000	0.993082	0.009101
5870.300000	0.993497	0.009094
5870.310000	1.000882	0.009125
5870.320000	1.011566	0.009183
5870.330000	1.014302	0.009214
5870.340000	1.012026	0.009206
5870.350000	1.006874	0.009169
5870.360000	0.994543	0.009101
5870.370000	0.985024	0.009046
5870.380000	0.987310	0.009062
5870.390000	0.994038	0.009117
5870.400000	0.995284	0.009125
5870.410000	0.991962	0.009101
5870.420000	0.992529	0.009100
5870.430000	0.996552	0.009106
5870.440000	1.003048	0.009139
5870.450000	1.009295	0.009188
5870.460000	1.004445	0.009173
5870.470000	0.996655	0.009124
5870.480000	1.000028	0.009141
5870.490000	1.007071	0.009183
5870.500000	1.008732	0.009189
5870.510000	1.004490	0.009174
5870.520000	1.002136	0.009161
5870.530000	1.006926	0.009166
5870.540000	1.012216	0.009189
5870.550000	1.010123	0.009195
5870.560000	1.000640	0.009151
5870.570000	0.994216	0.009107
5870.580000	0.999098	0.009127
5870.590000	1.010029	0.009191
5870.600000	1.012461	0.009219
5870.610000	0.999027	0.009145
5870.620000	0.990508	0.009084
5870.630000	0.996120	0.009115
5870.640000	0.998363	0.009125
5870.650000	0.996594	0.009113
5870.660000	1.001770	0.009154
5870.670000	1.009527	0.009194
5870.680000	1.006495	0.009169
5870.690000	1.000682	0.009138
5870.700000	1.002669	0.009135
5870.710000	1.003154	0.009123
5870.720000	1.001580	0.009127
5870.730000	0.999766	0.009128
5870.740000	0.996541	0.009103
5870.750000	0.999512	0.009113
5870.760000	1.002129	0.009120
5870.770000	1.000257	0.009104
5870.780000	1.000781	0.009108
5870.790000	1.001635	0.009116
5870.800000	1.002006	0.009127
5870.810000	1.003658	0.009135
5870.820000	1.006996	0.009141
5870.830000	1.009817	0.009154
5870.840000	1.006120	0.009133
5870.850000	0.998121	0.009089
5870.860000	0.995874	0.009084
5870.870000	0.999089	0.009115
5870.880000	1.005547	0.009154
5870.890000	1.010131	0.009166
5870.900000	1.002332	0.009111
5870.910000	0.993422	0.009052
5870.920000	0.998254	0.009078
5870.930000	1.002684	0.009113
5870.940000	0.999383	0.009099
5870.950000	1.001288	0.009100
5870.960000	1.007608	0.009131
5870.970000	1.006789	0.009139
5870.980000	1.000547	0.009106
5870.990000	0.998593	0.009086
5871.000000	0.998714	0.009095
5871.010000	0.998826	0.009095
5871.020000	0.998655	0.009077
5871.030000	0.996299	0.009071
5871.040000	1.002028	0.009117
5871.050000	1.008467	0.009146
5871.060000	1.001806	0.009108
5871.070000	1.000413	0.009101
5871.080000	1.011338	0.009145
5871.090000	1.014190	0.009156
5871.100000	1.007290	0.009137
5871.110000	1.004567	0.009125
5871.120000	1.003727	0.009111
5871.130000	0.995830	0.009069
5871.140000	0.992025	0.009047
5871.150000	0.998810	0.009084
5871.160000	0.998699	0.009092
5871.170000	0.992583	0.009063
5871.180000	0.996106	0.009083
5871.190000	1.002964	0.009113
5871.200000	1.004831	0.009117
5871.210000	1.002582	0.009106
5871.220000	0.995314	0.009064
5871.230000	0.990435	0.009026
5871.240000	0.998679	0.009083
5871.250000	1.010603	0.009176
5871.260000	1.011577	0.009175
5871.270000	1.004985	0.009097
5871.280000	0.999512	0.009054
5871.290000	0.997619	0.009074
5871.300000	0.997038	0.009091
5871.310000	1.002568	0.009104
5871.320000	1.010856	0.009117
5871.330000	1.004838	0.009083
5871.340000	0.993643	0.009033
5871.350000	0.997341	0.009055
5871.360000	1.010745	0.009143
5871.370000	1.010865	0.009155
5871.380000	0.996733	0.009067
5871.390000	0.994013	0.009045
5871.400000	1.001157	0.009086
5871.410000	1.000721	0.009083
5871.420000	0.995496	0.009047
5871.430000	0.993800	0.009031
5871.440000	0.997323	0.009057
5871.450000	1.005979	0.009110
5871.460000	1.005146	0.009097
5871.470000	0.991262	0.009021
5871.480000	0.992205	0.009034
5871.490000	1.007591	0.009122
5871.500000	1.011836	0.009146
5871.510000	1.009266	0.009125
5871.520000	1.007773	0.009108
5871.530000	1.002765	0.009094
5871.540000	0.995620	0.009071
5871.550000	0.993954	0.009059
5871.560000	1.000419	0.009086
5871.570000	1.004173	0.009095
5871.580000	1.003535	0.009085
5871.590000	1.000919	0.009085
5871.600000	0.994905	0.009065
5871.610000	0.994853	0.009058
5871.620000	0.999821	0.009070
5871.630000	0.999487	0.009064
5871.640000	0.998646	0.009071
5871.650000	0.998765	0.009085
5871.660000	0.998832	0.009076
5871.670000	0.998870	0.009062
5871.680000	1.000227	0.009081
5871.690000	1.001794	0.009103
5871.700000	0.996653	0.009072
5871.710000	0.989954	0.009029
5871.720000	0.989858	0.009023
5871.730000	0.998483	0.009074
5871.740000	1.002599	0.009101
5871.750000	0.999005	0.009080
5871.760000	0.999375	0.009078
5871.770000	0.999373	0.009080
5871.780000	0.995422	0.009080
5871.790000	1.000747	0.009113
5871.800000	1.011028	0.009142
5871.810000	1.005923	0.009096
5871.820000	0.996790	0.009053
5871.830000	1.000161	0.009095
5871.840000	1.006270	0.009151
5871.850000	1.005934	0.009147
5871.860000	1.004427	0.009115
5871.870000	1.002992	0.009102
5871.880000	0.997238	0.009088
5871.890000	0.989286	0.009047
5871.900000	0.989095	0.009030
5871.910000	0.997154	0.009079
5871.920000	1.005783	0.009138
5871.930000	1.004760	0.009123
5871.940000	0.995389	0.009074
5871.950000	0.996006	0.009089
5871.960000	0.999472	0.009108
5871.970000	0.997006	0.009087
5871.980000	1.005072	0.009138
5871.990000	1.016150	0.009217
5872.000000	1.009889	0.009176
5872.010000	0.997703	0.009101
5872.020000	0.995123	0.009103
5872.030000	0.999895	0.009132
5872.040000	1.005159	0.009143
5872.050000	1.002866	0.009119
5872.060000	0.996940	0.009101
5872.070000	0.994019	0.009103
5872.080000	0.996493	0.009113
5872.090000	0.998201	0.009107
5872.100000	0.992562	0.009062
5872.110000	0.992328	0.009068
5872.120000	1.001074	0.009124
5872.130000	1.004286	0.009134
5872.140000	0.997595	0.009088
5872.150000	0.992367	0.009047
5872.160000	0.999033	0.009076
5872.170000	1.004536	0.009117
5872.180000	0.998640	0.009093
5872.190000	0.997664	0.009084
5872.200000	1.000428	0.009094
5872.210000	0.997371	0.009077
5872.220000	0.993705	0.009064
5872.230000	0.993864	0.009072
5872.240000	0.996256	0.009080
5872.250000	0.995267	0.009072
5872.260000	0.995242	0.009075
5872.270000	0.997929	0.009073
5872.280000	0.994223	0.009042
5872.290000	0.995831	0.009056
5872.300000	1.007051	0.009119
5872.310000	1.005540	0.009119
5872.320000	0.996625	0.009082
5872.330000	0.998614	0.009082
5872.340000	1.003306	0.009099
5872.350000	1.002585	0.009106
5872.360000	1.001023	0.009103
5872.370000	1.000528	0.009096
5872.380000	0.996132	0.009069
5872.390000	0.988527	0.009023
5872.400000	0.989143	0.009027
5872.410000	1.000211	0.009094
5872.420000	1.005249	0.009114
5872.430000	0.998964	0.009064
5872.440000	0.994434	0.009035
5872.450000	0.997299	0.009055
5872.460000	0.996788	0.009055
5872.470000	0.990003	0.009027
5872.480000	0.994353	0.009058
5872.490000	1.006059	0.009105
5872.500000	1.005537	0.009093
5872.510000	1.000146	0.009070
5872.520000	0.999550	0.009063
5872.530000	1.000032	0.009061
5872.540000	1.000973	0.009066
5872.550000	0.999129	0.009056
5872.560000	0.991470	0.009020
5872.570000	0.991933	0.009030
5872.580000	1.002901	0.009102
5872.590000	1.006495	0.009121
5872.600000	0.999166	0.009061
5872.610000	0.991468	0.009014
5872.620000	0.995921	0.009046
5872.630000	1.006365	0.009102
5872.640000	1.001618	0.009072
5872.650000	0.986219	0.008990
5872.660000	0.981104	0.008970
5872.670000	0.990110	0.009026
5872.680000	0.995682	0.009060
5872.690000	0.993632	0.009042
5872.700000	0.993742	0.009027
5872.710000	0.992747	0.009025
5872.720000	0.995237	0.009058
5872.730000	1.002511	0.009098
5872.740000	1.004653	0.009078
5872.750000	1.009028	0.009085
5872.760000	1.014114	0.009127
5872.770000	1.006745	0.009093
5872.780000	1.000203	0.009059
5872.790000	1.004451	0.009093
5872.800000	1.005707	0.009092
5872.810000	1.001401	0.009065
5872.820000	1.002080	0.009089
5872.830000	1.007828	0.009125
5872.840000	1.005874	0.009093
5872.850000	0.992982	0.009003
5872.860000	0.987767	0.008987
5872.870000	1.005261	0.009115
5872.880000	1.016141	0.009182
5872.890000	1.011161	0.009142
5872.900000	1.009486	0.009123
5872.910000	1.001958	0.009085
5872.920000	0.991447	0.009034
5872.930000	0.996515	0.009059
5872.940000	1.010382	0.009129
5872.950000	1.008925	0.009113
5872.960000	0.987523	0.008996
5872.970000	0.973398	0.008922
5872.980000	0.985328	0.008989
5872.990000	1.000302	0.009077
5873.000000	0.999397	0.009062
5873.010000	0.997617	0.009034
5873.020000	1.004613	0.009073
5873.030000	1.000332	0.009063
5873.040000	0.981635	0.008971
5873.050000	0.980882	0.008960
5873.060000	0.997295	0.009040
5873.070000	1.000817	0.009059
5873.080000	0.995235	0.009021
5873.090000	0.993781	0.009010
5873.100000	0.995277	0.009031
5873.110000	0.998389	0.009059
5873.120000	0.999759	0.009065
5873.130000	1.000253	0.009064
5873.140000	1.003223	0.009089
5873.150000	1.002913	0.009095
5873.160000	1.000885	0.009078
5873.170000	1.006498	0.009096
5873.180000	1.007598	0.009096
5873.190000	0.997497	0.009042
5873.200000	0.990627	0.009001
5873.210000	0.995219	0.009030
5873.220000	1.004871	0.009104
5873.230000	1.005465	0.009112
5873.240000	0.997468	0.009055
5873.250000	0.995990	0.009042
5873.260000	0.998539	0.009054
5873.270000	0.994241	0.009034
5873.280000	0.992499	0.009038
5873.290000	0.997982	0.009068
5873.300000	1.000984	0.009074
5873.310000	0.999841	0.009062
5873.320000	0.995226	0.009043
5873.330000	0.991743	0.009037
5873.340000	0.992037	0.009031
5873.350000	0.993348	0.009036
5873.360000	0.999153	0.009086
5873.370000	1.007218	0.009124
5873.380000	1.010532	0.009123
5873.390000	1.008707	0.009117
5873.400000	1.006218	0.009127
5873.410000	1.004479	0.009126
5873.420000	1.001771	0.009101
5873.430000	0.996270	0.009072
5873.440000	0.996049	0.009081
5873.450000	1.001000	0.009118
5873.460000	0.998424	0.009097
5873.470000	0.994807	0.009069
5873.480000	0.997166	0.009082
5873.490000	0.998570	0.009098
5873.500000	0.999710	0.009119
5873.510000	1.005801	0.009147
5873.520000	1.006059	0.009135
5873.530000	0.994329	0.009080
5873.540000	0.995194	0.009100
5873.550000	1.010436	0.009174
5873.560000	1.014924	0.009188
5873.570000	1.006102	0.009154
5873.580000	0.995509	0.009118
5873.590000	0.995831	0.009124
5873.600000	1.003804	0.009155
5873.610000	1.001268	0.009126
5873.620000	0.994050	0.009096
5873.630000	0.996604	0.009140
5873.640000	1.003349	0.009186
5873.650000	1.008986	0.009199
5873.660000	1.009904	0.009192
5873.670000	1.003683	0.009175
5873.680000	0.997682	0.009179
5873.690000	0.999398	0.009214
5873.700000	1.004487	0.009249
5873.710000	1.003587	0.009240
5873.720000	1.000251	0.009239
5873.730000	0.996883	0.009252
5873.740000	0.990477	0.009224
5873.750000	0.987994	0.009205
5873.760000	0.997904	0.009269
5873.770000	1.006908	0.009321
5873.780000	1.004519	0.009292
5873.790000	1.003317	0.009303
5873.800000	1.000774	0.009302
5873.810000	0.999020	0.009266
5873.820000	1.005561	0.009300
5873.830000	1.008127	0.009348
5873.840000	1.001817	0.009324
5873.850000	0.995148	0.009267
5873.860000	0.991256	0.009235
5873.870000	0.988429	0.009225
5873.880000	0.994608	0.009262
5873.890000	1.005474	0.009324
5873.900000	1.005809	0.009322
5873.910000	1.001508	0.009294
5873.920000	0.994845	0.009264
5873.930000	0.994789	0.009283
5873.940000	1.007456	0.009352
5873.950000	1.010075	0.009345
5873.960000	1.005894	0.009311
5873.970000	1.009705	0.009336
5873.980000	1.006365	0.009321
5873.990000	0.990283	0.009227
5874.000000	0.980237	0.009153
5874.010000	0.988698	0.009196
5874.020000	1.004731	0.009300
5874.030000	1.006139	0.009324
5874.040000	0.991451	0.009242
5874.050000	0.984230	0.009179
5874.060000	0.986909	0.009177
5874.070000	0.992446	0.009200
5874.080000	1.005786	0.009269
5874.090000	1.013146	0.009310
5874.100000	1.004780	0.009249
5874.110000	0.997312	0.009199
5874.120000	1.000857	0.009231
5874.130000	1.004645	0.009265
5874.140000	1.001175	0.009242
5874.150000	0.996148	0.009198
5874.160000	0.994565	0.009180
5874.170000	0.998409	0.009194
5874.180000	1.006476	0.009225
5874.190000	1.005991	0.009215
5874.200000	0.995857	0.009166
5874.210000	0.994743	0.009165
5874.220000	1.002690	0.009204
5874.230000	1.003351	0.009203
5874.240000	1.000035	0.009177
5874.250000	1.007754	0.009218
5874.260000	1.019218	0.009297
5874.270000	1.012308	0.009267
5874.280000	0.995273	0.009168
5874.290000	0.994568	0.009157
5874.300000	1.009058	0.009240
5874.310000	1.018674	0.009299
5874.320000	1.013199	0.009257
5874.330000	1.003483	0.009188
5874.340000	1.000185	0.009169
5874.350000	1.003214	0.009189
5874.360000	1.007715	0.009218
5874.370000	1.004843	0.009197
5874.380000	1.000954	0.009159
5874.390000	1.003872	0.009168
5874.400000	1.004335	0.009172
5874.410000	0.999946	0.009148
5874.420000	0.999921	0.009141
5874.430000	1.000918	0.009148
5874.440000	0.997426	0.009141
5874.450000	0.991856	0.009099
5874.460000	0.990240	0.009083
5874.470000	0.998256	0.009135
5874.480000	1.006549	0.009171
5874.490000	1.004926	0.009162
5874.500000	1.001182	0.009156
5874.510000	0.998431	0.009152
5874.520000	0.995567	0.009128
5874.530000	0.996938	0.009112
5874.540000	0.999055	0.009125
5874.550000	1.004076	0.009169
5874.560000	1.010059	0.009206
5874.570000	1.006365	0.009182
5874.580000	0.995616	0.009110
5874.590000	0.989592	0.009069
5874.600000	0.993537	0.009096
5874.610000	1.000354	0.009136
5874.620000	1.002345	0.009135
5874.630000	1.002274	0.009131
5874.640000	1.001349	0.009132
5874.650000	0.998931	0.009117
5874.660000	1.002843	0.009141
5874.670000	1.005639	0.009155
5874.680000	1.003101	0.009127
5874.690000	1.002123	0.009124
5874.700000	0.997409	0.009118
5874.710000	0.990679	0.009083
5874.720000	0.991010	0.009060
5874.730000	1.000295	0.009096
5874.740000	1.006526	0.009139
5874.750000	1.000175	0.009114
5874.760000	0.998748	0.009103
5874.770000	1.003935	0.009116
5874.780000	0.998560	0.009085
5874.790000	0.988961	0.009041
5874.800000	0.988264	0.009023
5874.810000	0.993289	0.009040
5874.820000	0.997306	0.009075
5874.830000	0.996692	0.009076
5874.840000	0.995760	0.009058
5874.850000	1.000500	0.009072
5874.860000	1.001370	0.009084
5874.870000	0.993437	0.009062
5874.880000	0.985791	0.009029
5874.890000	0.984850	0.009016
5874.900000	0.993068	0.009050
5874.910000	0.998416	0.009069
5874.920000	0.991391	0.009026
5874.930000	0.987485	0.009004
5874.940000	0.994091	0.009032
5874.950000	0.997444	0.009052
5874.960000	0.998056	0.009060
5874.970000	1.004357	0.009088
5874.980000	1.006914	0.009100
5874.990000	0.997497	0.009051
5875.000000	0.985511	0.008984
5875.010000	0.984378	0.008984
5875.020000	0.991107	0.009028
5875.030000	0.994632	0.009031
5875.040000	0.993348	0.009009
5875.050000	0.997192	0.009041
5875.060000	1.007652	0.009109
5875.070000	1.013940	0.009144
5875.080000	1.009795	0.009119
5875.090000	0.994126	0.009024
5875.100000	0.983476	0.008957
5875.110000	0.989390	0.008987
5875.120000	0.996240	0.009037
5875.130000	0.997823	0.009066
5875.140000	0.995863	0.009062
5875.150000	0.986165	0.008998
5875.160000	0.983686	0.008970
5875.170000	0.989701	0.008996
5875.180000	0.990571	0.009002
5875.190000	0.994746	0.009029
5875.200000	1.001811	0.009060
5875.210000	1.001584	0.009058
5875.220000	0.997285	0.009049
5875.230000	0.995873	0.009056
5875.240000	0.998213	0.009061
5875.250000	1.002378	0.009070
5875.260000	1.005711	0.009084
5875.270000	1.005091	0.009102
5875.280000	0.994477	0.009080
5875.290000	0.990099	0.009040
5875.300000	1.000260	0.009056
5875.310000	1.002719	0.009074
5875.320000	1.001648	0.009090
5875.330000	1.006623	0.009115
5875.340000	1.003950	0.009088
5875.350000	1.001362	0.009068
5875.360000	1.002667	0.009086
5875.370000	1.000789	0.009088
5875.380000	1.003814	0.009106
5875.390000	1.003666	0.009103
5875.400000	0.996367	0.009064
5875.410000	0.999144	0.009076
5875.420000	1.002326	0.009089
5875.430000	0.993270	0.009052
5875.440000	0.992168	0.009050
5875.450000	0.998043	0.009064
5875.460000	0.995188	0.009041
5875.470000	0.993458	0.009047
5875.480000	1.003242	0.009112
5875.490000	1.009832	0.009131
5875.500000	1.001537	0.009073
5875.510000	0.997673	0.009066
5875.520000	1.005040	0.009112
5875.530000	1.007158	0.009118
5875.540000	1.001840	0.009078
5875.550000	1.001575	0.009068
5875.560000	1.008030	0.009118
5875.570000	1.008906	0.009135
5875.580000	0.999815	0.009092
5875.590000	0.993268	0.009052
5875.600000	1.001033	0.009079
5875.610000	1.011430	0.009133
5875.620000	1.012747	0.009151
5875.630000	1.005745	0.009134
5875.640000	0.999403	0.009111
5875.650000	0.999051	0.009095
5875.660000	0.993709	0.009052
5875.670000	0.989382	0.009033
5875.680000	0.997472	0.009090
5875.690000	1.005064	0.009127
5875.700000	1.001343	0.009092
5875.710000	0.993771	0.009051
5875.720000	0.995158	0.009067
5875.730000	0.999689	0.009096
5875.740000	0.996740	0.009081
5875.750000	0.995811	0.009074
5875.760000	1.000669	0.009094
5875.770000	1.001164	0.009096
5875.780000	0.995643	0.009080
5875.790000	0.994057	0.009080
5875.800000	0.999013	0.009098
5875.810000	0.999994	0.009087
5875.820000	1.001349	0.009078
5875.830000	1.010094	0.009135
5875.840000	1.010441	0.009157
5875.850000	0.997591	0.009088
5875.860000	0.994502	0.009066
5875.870000	1.005558	0.009132
5875.880000	1.009737	0.009151
5875.890000	1.009085	0.009153
5875.900000	1.010833	0.009191
5875.910000	1.001544	0.009135
5875.920000	0.994740	0.009068
5875.930000	1.004240	0.009111
5875.940000	1.006701	0.009131
5875.950000	0.996436	0.009086
5875.960000	0.997898	0.009105
5875.970000	1.007577	0.009158
5875.980000	1.004593	0.009151
5875.990000	0.999295	0.009134
5876.000000	1.001489	0.009143
5876.010000	0.999132	0.009127
5876.020000	0.992278	0.009094
5876.030000	0.988822	0.009063
5876.040000	0.992512	0.009073
5876.050000	0.997030	0.009113
5876.060000	0.996927	0.009122
5876.070000	1.000873	0.009130
5876.080000	1.008578	0.009163
5876.090000	1.007827	0.009162
5876.100000	1.001027	0.009127
5876.110000	1.001259	0.009126
5876.120000	1.006477	0.009152
5876.130000	1.005845	0.009135
5876.140000	1.006416	0.009132
5876.150000	1.007734	0.009154
5876.160000	1.001688	0.009124
5876.170000	1.001170	0.009111
5876.180000	1.004807	0.009133
5876.190000	1.001552	0.009122
5876.200000	1.004347	0.009142
5876.210000	1.007835	0.009159
5876.220000	0.999112	0.009101
5876.230000	0.992865	0.009056
5876.240000	0.994121	0.009068
5876.250000	0.994659	0.009098
5876.260000	0.995463	0.009115
5876.270000	1.002255	0.009133
5876.280000	1.004634	0.009127
5876.290000	0.998456	0.009097
5876.300000	0.997746	0.009102
5876.310000	1.000466	0.009110
5876.320000	0.997702	0.009089
5876.330000	0.998462	0.009092
5876.340000	1.009216	0.009166
5876.350000	1.010436	0.009203
5876.360000	0.991315	0.009091
5876.370000	0.984146	0.009023
5876.380000	0.998073	0.009092
5876.390000	1.005828	0.009146
5876.400000	1.003031	0.009136
5876.410000	1.002701	0.009122
5876.420000	1.007936	0.009138
5876.430000	1.010855	0.009160
5876.440000	1.005419	0.009152
5876.450000	1.000493	0.009137
5876.460000	1.003347	0.009123
5876.470000	0.998797	0.009064
5876.480000	0.989832	0.009027
5876.490000	0.993545	0.009070
5876.500000	0.998006	0.009090
5876.510000	0.996065	0.009070
5876.520000	0.993739	0.009053
5876.530000	0.995528	0.009062
5876.540000	1.003333	0.009118
5876.550000	1.003796	0.009132
5876.560000	0.996668	0.009077
5876.570000	1.001771	0.009087
5876.580000	1.010412	0.009141
5876.590000	1.004595	0.009109
5876.600000	0.999771	0.009075
5876.610000	1.002228	0.009093
5876.620000	1.000916	0.009093
5876.630000	1.003822	0.009107
5876.640000	1.008873	0.009131
5876.650000	0.998583	0.009067
5876.660000	0.985512	0.008987
5876.670000	0.990983	0.009025
5876.680000	1.000722	0.009090
5876.690000	0.996645	0.009072
5876.700000	0.992969	0.009052
5876.710000	0.997953	0.009070
5876.720000	1.000548	0.009076
5876.730000	1.004118	0.009114
5876.740000	1.006475	0.009144
5876.750000	0.999441	0.009090
5876.760000	0.996912	0.009060
5876.770000	1.003908	0.009117
5876.780000	1.006052	0.009151
5876.790000	0.999759	0.009122
5876.800000	0.993417	0.009077
5876.810000	0.998342	0.009098
5876.820000	1.009636	0.009178
5876.830000	1.007557	0.009180
5876.840000	0.999806	0.009129
5876.850000	1.000845	0.009118
5876.860000	1.001803	0.009114
5876.870000	0.997203	0.009106
5876.880000	0.994773	0.009106
5876.890000	0.998665	0.009114
5876.900000	1.002245	0.009120
5876.910000	1.004128	0.009134
5876.920000	1.005992	0.009164
5876.930000	1.004153	0.009166
5876.940000	0.999125	0.009125
5876.950000	0.994085	0.009075
5876.960000	0.995768	0.009084
5876.970000	0.999683	0.009122
5876.980000	1.000069	0.009127
5876.990000	1.006843	0.009156
5877.000000	1.008802	0.009171
5877.010000	0.999061	0.009129
5877.020000	0.994623	0.009109
5877.030000	0.996524	0.009117
5877.040000	0.994739	0.009099
5877.050000	0.993372	0.009075
5877.060000	0.995791	0.009090
5877.070000	0.995684	0.009119
5877.080000	0.992866	0.009129
5877.090000	0.998355	0.009149
5877.100000	0.998991	0.009118
5877.110000	0.987380	0.009037
5877.120000	0.991560	0.009073
5877.130000	1.002159	0.009145
5877.140000	1.002512	0.009149
5877.150000	0.997755	0.009115
5877.160000	0.989510	0.009062
5877.170000	0.991693	0.009082
5877.180000	1.000840	0.009145
5877.190000	1.000891	0.009154
5877.200000	0.997510	0.009130
5877.210000	1.001296	0.009137
5877.220000	1.006561	0.009171
5877.230000	1.005231	0.009162
5877.240000	1.003054	0.009131
5877.250000	1.006460	0.009150
5877.260000	1.007616	0.009167
5877.270000	0.997858	0.009104
5877.280000	0.987472	0.009038
5877.290000	0.993946	0.009083
5877.300000	1.007209	0.009165
5877.310000	1.003976	0.009145
5877.320000	0.994326	0.009098
5877.330000	0.992482	0.009092
5877.340000	0.993434	0.009090
5877.350000	0.997245	0.009107
5877.360000	1.000415	0.009129
5877.370000	0.998096	0.009111
5877.380000	1.003387	0.009128
5877.390000	1.014882	0.009189
5877.400000	1.012700	0.009187
5877.410000	1.006142	0.009159
5877.420000	1.004359	0.009136
5877.430000	0.996534	0.009079
5877.440000	0.992102	0.009049
5877.450000	1.002299	0.009101
5877.460000	1.007239	0.009123
5877.470000	0.998813	0.009072
5877.480000	0.995263	0.009059
5877.490000	1.002852	0.009104
5877.500000	1.015175	0.009148
5877.510000	1.017819	0.009144
5877.520000	1.009535	0.009121
5877.530000	1.004559	0.009121
5877.540000	1.000861	0.009100
5877.550000	0.998622	0.009069
5877.560000	1.003743	0.009083
5877.570000	1.008717	0.009110
5877.580000	1.013192	0.009145
5877.590000	1.014253	0.009148
5877.600000	1.002850	0.009071
5877.610000	0.991982	0.009016
5877.620000	0.993155	0.009048
5877.630000	1.005394	0.009127
5877.640000	1.009062	0.009118
5877.650000	0.995912	0.009028
5877.660000	0.998496	0.009064
5877.670000	1.013703	0.009153
5877.680000	1.009500	0.009121
5877.690000	0.995212	0.009037
5877.700000	0.992585	0.009008
5877.710000	0.999630	0.009053
5877.720000	1.002264	0.009087
5877.730000	0.998515	0.009073
5877.740000	0.993936	0.009036
5877.750000	0.995819	0.009027
5877.760000	1.005965	0.009083
5877.770000	1.013749	0.009140
5877.780000	1.007682	0.009110
5877.790000	1.001578	0.009068
5877.800000	0.999420	0.009053
5877.810000	0.995201	0.009033
5877.820000	1.002960	0.009068
5877.830000	1.007808	0.009099
5877.840000	0.995667	0.009043
5877.850000	0.993962	0.009020
5877.860000	1.004692	0.009072
5877.870000	0.998098	0.009050
5877.880000	0.987430	0.009003
5877.890000	0.998992	0.009057
5877.900000	1.009715	0.009102
5877.910000	0.999709	0.009058
5877.920000	0.991855	0.009038
5877.930000	1.000464	0.009090
5877.940000	1.003544	0.009087
5877.950000	0.996560	0.009030
5877.960000	0.997247	0.009034
5877.970000	1.006262	0.009102
5877.980000	1.015077	0.009156
5877.990000	1.014852	0.009130
5878.000000	1.007950	0.009079
5878.010000	1.000872	0.009059
5878.020000	0.996210	0.009048
5878.030000	0.996716	0.009037
5878.040000	0.993913	0.009003
5878.050000	0.993881	0.009009
5878.060000	1.001083	0.009066
5878.070000	1.003110	0.009093
5878.080000	1.001895	0.009092
5878.090000	1.002838	0.009085
5878.100000	1.009602	0.009107
5878.110000	1.014840	0.009139
5878.120000	1.005039	0.009099
5878.130000	0.991011	0.009016
5878.140000	0.989113	0.008992
5878.150000	0.994409	0.009030
5878.160000	1.000573	0.009086
5878.170000	1.002284	0.009099
5878.180000	0.996620	0.009052
5878.190000	0.996606	0.009047
5878.200000	1.000747	0.009089
5878.210000	0.998094	0.009093
5878.220000	0.994468	0.009079
5878.230000	0.996826	0.009088
5878.240000	0.998220	0.009094
5878.250000	0.992154	0.009073
5878.260000	0.991770	0.009087
5878.270000	1.005827	0.009167
5878.280000	1.013248	0.009216
5878.290000	1.009276	0.009224
5878.300000	1.005446	0.009220
5878.310000	0.998342	0.009177
5878.320000	0.994678	0.009167
5878.330000	0.994475	0.009186
5878.340000	0.988555	0.009162
5878.350000	0.992551	0.009181
5878.360000	1.003533	0.009245
5878.370000	0.997083	0.009223
5878.380000	0.993065	0.009197
5878.390000	1.004324	0.009250
5878.400000	0.999365	0.009220
5878.410000	0.988052	0.009148
5878.420000	0.995043	0.009185
5878.430000	1.002705	0.009243
5878.440000	1.004742	0.009275
5878.450000	1.007114	0.009290
5878.460000	1.002525	0.009251
5878.470000	1.002481	0.009241
5878.480000	1.008487	0.009277
5878.490000	0.996249	0.009222
5878.500000	0.989716	0.009192
5878.510000	1.008874	0.009288
5878.520000	1.013509	0.009306
5878.530000	0.998457	0.009237
5878.540000	0.995181	0.009240
5878.550000	1.006332	0.009301
5878.560000	1.006244	0.009284
5878.570000	0.997897	0.009231
5878.580000	1.002348	0.009262
5878.590000	1.002287	0.009266
5878.600000	0.993803	0.009214
5878.610000	0.995229	0.009214
5878.620000	0.999916	0.009241
5878.630000	1.000758	0.009261
5878.640000	0.997319	0.009242
5878.650000	0.999195	0.009234
5878.660000	1.007846	0.009276
5878.670000	1.005337	0.009263
5878.680000	0.996239	0.009212
5878.690000	0.994977	0.009195
5878.700000	0.996006	0.009192
5878.710000	0.998517	0.009220
5878.720000	1.005819	0.009264
5878.730000	1.014211	0.009302
5878.740000	1.012469	0.009285
5878.750000	1.003299	0.009210
5878.760000	1.004595	0.009204
5878.770000	1.011014	0.009250
5878.780000	1.007353	0.009237
5878.790000	0.996830	0.009173
5878.800000	0.994908	0.009145
5878.810000	0.999268	0.009157
5878.820000	0.996356	0.009137
5878.830000	0.990129	0.009096
5878.840000	0.995272	0.009126
5878.850000	0.999960	0.009154
5878.860000	0.992058	0.009109
5878.870000	0.992642	0.009119
5878.880000	1.003765	0.009178
5878.890000	1.001002	0.009146
5878.900000	0.993066	0.009093
5878.910000	0.997934	0.009121
5878.920000	1.003526	0.009153
5878.930000	1.003041	0.009137
5878.940000	1.004684	0.009141
5878.950000	1.006346	0.009145
5878.960000	1.000342	0.009091
5878.970000	0.999427	0.009090
5878.980000	1.008408	0.009159
5878.990000	1.002213	0.009111
5879.000000	0.991840	0.009034
5879.010000	0.997254	0.009064
5879.020000	1.000137	0.009083
5879.030000	0.995527	0.009050
5879.040000	0.998743	0.009055
5879.050000	1.003151	0.009075
5879.060000	0.999931	0.009070
5879.070000	0.999072	0.009078
5879.080000	0.999656	0.009088
5879.090000	0.999109	0.009087
5879.100000	1.004006	0.009103
5879.110000	1.007994	0.009113
5879.120000	1.011332	0.009141
5879.130000	1.014356	0.009160
5879.140000	1.007390	0.009106
5879.150000	0.995498	0.009043
5879.160000	0.992490	0.009042
5879.170000	1.001447	0.009095
5879.180000	1.010550	0.009137
5879.190000	1.007025	0.009104
5879.200000	0.996865	0.009038
5879.210000	0.988973	0.009006
5879.220000	0.989825	0.009020
5879.230000	1.000901	0.009075
5879.240000	1.003104	0.009095
5879.250000	0.994076	0.009068
5879.260000	0.994360	0.009072
5879.270000	1.004373	0.009107
5879.280000	1.007525	0.009108
5879.290000	0.998310	0.009059
5879.300000	0.987514	0.009019
5879.310000	0.990731	0.009053
5879.320000	0.998636	0.009089
5879.330000	1.001367	0.009092
5879.340000	1.001032	0.009081
5879.350000	0.999578	0.009078
5879.360000	1.001173	0.009093
5879.370000	1.002365	0.009088
5879.380000	1.000745	0.009086
5879.390000	0.998872	0.009105
5879.400000	0.999397	0.009122
5879.410000	1.000370	0.009107
5879.420000	0.998822	0.009085
5879.430000	1.002216	0.009108
5879.440000	1.006086	0.009128
5879.450000	1.002793	0.009114
5879.460000	0.999599	0.009107
5879.470000	1.003516	0.009123
5879.480000	1.006253	0.009136
5879.490000	0.998522	0.009116
5879.500000	0.997320	0.009132
5879.510000	1.001166	0.009152
5879.520000	0.999540	0.009122
5879.530000	0.999715	0.009107
5879.540000	1.003410	0.009133
5879.550000	1.001462	0.009140
5879.560000	0.993400	0.009102
5879.570000	0.997355	0.009110
5879.580000	1.007341	0.009163
5879.590000	1.001762	0.009147
5879.600000	0.991573	0.009094
5879.610000	0.993953	0.009106
5879.620000	1.000363	0.009135
5879.630000	1.000521	0.009122
5879.640000	0.999666	0.009121
5879.650000	1.000350	0.009133
5879.660000	0.999472	0.009130
5879.670000	0.995292	0.009101
5879.680000	0.991707	0.009075
5879.690000	0.992972	0.009096
5879.700000	0.995611	0.009116
5879.710000	0.998435	0.009109
5879.720000	1.001975	0.009111
5879.730000	1.004889	0.009137
5879.740000	1.005571	0.009160
5879.750000	1.004516	0.009158
5879.760000	1.001890	0.009128
5879.770000	0.994807	0.009076
5879.780000	0.987181	0.009040
5879.790000	0.990619	0.009071
5879.800000	0.997687	0.009111
5879.810000	0.994712	0.009083
5879.820000	0.998261	0.009090
5879.830000	1.009108	0.009147
5879.840000	1.006652	0.009148
5879.850000	1.000132	0.009120
5879.860000	1.002125	0.009121
5879.870000	1.002630	0.009117
5879.880000	0.998464	0.009102
5879.890000	0.997686	0.009101
5879.900000	1.003320	0.009120
5879.910000	1.006875	0.009127
5879.920000	0.999659	0.009108
5879.930000	0.993991	0.009105
5879.940000	0.997113	0.009108
5879.950000	1.000668	0.009108
5879.960000	0.996796	0.009098
5879.970000	0.992193	0.009100
5879.980000	0.996353	0.009130
5879.990000	1.001888	0.009153
5880.000000	0.999052	0.009148
5880.010000	0.995683	0.009135
5880.020000	0.999057	0.009161
5880.030000	1.000490	0.009180
5880.040000	0.997460	0.009160
5880.050000	0.997466	0.009160
5880.060000	1.001489	0.009181
5880.070000	1.007850	0.009210
5880.080000	1.007172	0.009211
5880.090000	0.999074	0.009180
5880.100000	1.002002	0.009199
5880.110000	1.009271	0.009218
5880.120000	1.001810	0.009161
5880.130000	0.991875	0.009115
5880.140000	0.995581	0.009147
5880.150000	0.998560	0.009171
5880.160000	0.997499	0.009168
5880.170000	1.006625	0.009203
5880.180000	1.009589	0.009210
5880.190000	0.999279	0.009161
5880.200000	0.996373	0.009153
5880.210000	0.994002	0.009144
5880.220000	0.989987	0.009122
5880.230000	0.994680	0.009139
5880.240000	0.999924	0.009167
5880.250000	0.999384	0.009165
5880.260000	0.991673	0.009126
5880.270000	0.986357	0.009102
5880.280000	0.991073	0.009134
5880.290000	1.000205	0.009181
5880.300000	1.002905	0.009180
5880.310000	0.997635	0.009153
5880.320000	0.998313	0.009167
5880.330000	0.997592	0.009160
5880.340000	0.992718	0.009140
5880.350000	0.993324	0.009153
5880.360000	0.993030	0.009146
5880.370000	1.000725	0.009186
5880.380000	1.006651	0.009224
5880.390000	0.997017	0.009183
5880.400000	0.988068	0.009133
5880.410000	0.987121	0.009107
5880.420000	0.998127	0.009156
5880.430000	1.011634	0.009237
5880.440000	1.008921	0.009223
5880.450000	0.996245	0.009152
5880.460000	0.992420	0.009142
5880.470000	0.997652	0.009178
5880.480000	1.002936	0.009199
5880.490000	1.007504	0.009214
5880.500000	1.001806	0.009177
5880.510000	0.990071	0.009122
5880.520000	0.994165	0.009184
5880.530000	1.003981	0.009262
5880.540000	1.003490	0.009245
5880.550000	1.004556	0.009241
5880.560000	1.010185	0.009295
5880.570000	1.005598	0.009296
5880.580000	1.004211	0.009285
5880.590000	1.007594	0.009296
5880.600000	0.997207	0.009222
5880.610000	0.995177	0.009205
5880.620000	1.006987	0.009296
5880.630000	1.007767	0.009319
5880.640000	1.000279	0.009258
5880.650000	0.994470	0.009192
5880.660000	0.993242	0.009178
5880.670000	0.997810	0.009230
5880.680000	1.002593	0.009271
5880.690000	1.000820	0.009247
5880.700000	0.994105	0.009196
5880.710000	0.992038	0.009197
5880.720000	0.998947	0.009259
5880.730000	1.001370	0.009282
5880.740000	0.997872	0.009259
5880.750000	0.999919	0.009271
5880.760000	1.005677	0.009324
5880.770000	1.011670	0.009376
5880.780000	1.009574	0.009370
5880.790000	1.000443	0.009320
5880.800000	1.001989	0.009331
5880.810000	1.006328	0.009370
5880.820000	1.001255	0.009349
5880.830000	0.995835	0.009315
5880.840000	0.994027	0.009314
5880.850000	0.999522	0.009356
5880.860000	1.002674	0.009369
5880.870000	0.992014	0.009306
5880.880000	0.992341	0.009307
5880.890000	1.006019	0.009379
5880.900000	1.006115	0.009372
5880.910000	1.001616	0.009352
5880.920000	1.008435	0.009386
5880.930000	1.016939	0.009417
5880.940000	1.007016	0.009365
5880.950000	0.995591	0.009300
5880.960000	1.007415	0.009362
5880.970000	1.016651	0.009414
5880.980000	1.004993	0.009347
5880.990000	0.999289	0.009310
5881.000000	1.003902	0.009324
5881.010000	1.004045	0.009309
5881.020000	1.003030	0.009296
5881.030000	1.001436	0.009298
5881.040000	0.998198	0.009288
5881.050000	1.001147	0.009284
5881.060000	1.009022	0.009318
5881.070000	1.010162	0.009331
5881.080000	1.004532	0.009302
5881.090000	1.000515	0.009267
5881.100000	1.003762	0.009266
5881.110000	1.002200	0.009269
5881.120000	0.994879	0.009246
5881.130000	1.000300	0.009270
5881.140000	1.010920	0.009322
5881.150000	1.004559	0.009281
5881.160000	0.997863	0.009233
5881.170000	1.006353	0.009268
5881.180000	1.005306	0.009252
5881.190000	0.993291	0.009171
5881.200000	0.997118	0.009170
5881.210000	1.005128	0.009204
5881.220000	0.999897	0.009187
5881.230000	0.993793	0.009166
5881.240000	0.990568	0.009143
5881.250000	0.990690	0.009119
5881.260000	0.997549	0.009130
5881.270000	1.001071	0.009159
5881.280000	1.000881	0.009184
5881.290000	1.005603	0.009187
5881.300000	1.007117	0.009160
5881.310000	0.997386	0.009119
5881.320000	0.991545	0.009112
5881.330000	0.993234	0.009122
5881.340000	0.993128	0.009111
5881.350000	0.994109	0.009113
5881.360000	0.994824	0.009114
5881.370000	0.996442	0.009122
5881.380000	1.002902	0.009161
5881.390000	1.001750	0.009156
5881.400000	0.992563	0.009105
5881.410000	0.997105	0.009116
5881.420000	1.003539	0.009139
5881.430000	0.998435	0.009106
5881.440000	1.005775	0.009129
5881.450000	1.012671	0.009158
5881.460000	0.997862	0.009088
5881.470000	0.992776	0.009070
5881.480000	1.003230	0.009127
5881.490000	1.003119	0.009117
5881.500000	0.997189	0.009083
5881.510000	0.995629	0.009082
5881.520000	1.002310	0.009124
5881.530000	1.014412	0.009185
5881.540000	1.014982	0.009177
5881.550000	1.007273	0.009130
5881.560000	0.999823	0.009089
5881.570000	1.000734	0.009102
5881.580000	1.012828	0.009178
5881.590000	1.016791	0.009194
5881.600000	1.010482	0.009156
5881.610000	1.000866	0.009113
5881.620000	0.996980	0.009092
5881.630000	0.997965	0.009096
5881.640000	0.996781	0.009107
5881.650000	1.001764	0.009146
5881.660000	1.012168	0.009201
5881.670000	1.008156	0.009186
5881.680000	0.998376	0.009131
5881.690000	1.004333	0.009155
5881.700000	1.012018	0.009209
5881.710000	1.007350	0.009195
5881.720000	1.002740	0.009168
5881.730000	1.001352	0.009171
5881.740000	0.993860	0.009141
5881.750000	0.991760	0.009139
5881.760000	0.998241	0.009188
5881.770000	1.006469	0.009246
5881.780000	1.011919	0.009286
5881.790000	1.005061	0.009268
5881.800000	0.998495	0.009252
5881.810000	0.999776	0.009264
5881.820000	1.000879	0.009262
5881.830000	1.004626	0.009282
5881.840000	1.009285	0.009317
5881.850000	1.007103	0.009314
5881.860000	0.996345	0.009263
5881.870000	0.988725	0.009217
5881.880000	0.994301	0.009242
5881.890000	1.002593	0.009282
5881.900000	1.001145	0.009277
5881.910000	0.999639	0.009278
5881.920000	1.004684	0.009291
5881.930000	1.004513	0.009278
5881.940000	0.996629	0.009248
5881.950000	0.998037	0.009274
5881.960000	1.007826	0.009327
5881.970000	1.008174	0.009314
5881.980000	1.002733	0.009289
5881.990000	0.999137	0.009287
5882.000000	0.995764	0.009271
5882.010000	0.996941	0.009264
5882.020000	1.006678	0.009292
5882.030000	1.009904	0.009313
5882.040000	1.004661	0.009306
5882.050000	1.003954	0.009293
5882.060000	1.005673	0.009297
5882.070000	1.004526	0.009309
5882.080000	1.000588	0.009293
5882.090000	0.996898	0.009257
5882.100000	0.992676	0.009212
5882.110000	0.988772	0.009191
5882.120000	0.991912	0.009223
5882.130000	1.003930	0.009279
5882.140000	1.009674	0.009291
5882.150000	1.005491	0.009275
5882.160000	1.005748	0.009287
5882.170000	1.005235	0.009271
5882.180000	0.997833	0.009223
5882.190000	0.992998	0.009199
5882.200000	0.995622	0.009206
5882.210000	1.000234	0.009239
5882.220000	1.002427	0.009257
5882.230000	1.004501	0.009256
5882.240000	1.001749	0.009226
5882.250000	0.991498	0.009162
5882.260000	0.994360	0.009188
5882.270000	1.008989	0.009271
5882.280000	1.011611	0.009276
5882.290000	1.005770	0.009236
5882.300000	1.003445	0.009212
5882.310000	1.008056	0.009237
5882.320000	1.009295	0.009246
5882.330000	0.997306	0.009185
5882.340000	0.992171	0.009157
5882.350000	1.002357	0.009210
5882.360000	1.004309	0.009230
5882.370000	0.997635	0.009188
5882.380000	0.999979	0.009176
5882.390000	0.996512	0.009137
5882.400000	0.986614	0.009074
5882.410000	0.989737	0.009107
5882.420000	0.999725	0.009179
5882.430000	1.009945	0.009231
5882.440000	1.011007	0.009215
5882.450000	1.005122	0.009169
5882.460000	1.001088	0.009152
5882.470000	0.996327	0.009123
5882.480000	0.990396	0.009078
5882.490000	0.995844	0.009097
5882.500000	1.009290	0.009165
5882.510000	1.005380	0.009145
5882.520000	0.996218	0.009102
5882.530000	0.998050	0.009117
5882.540000	1.001406	0.009122
5882.550000	1.001494	0.009121
5882.560000	0.996379	0.009101
5882.570000	0.994594	0.009087
5882.580000	0.998744	0.009117
5882.590000	0.998829	0.009117
5882.600000	0.991411	0.009070
5882.610000	0.985643	0.009048
5882.620000	0.997482	0.009124
5882.630000	1.009001	0.009175
5882.640000	0.997726	0.009088
5882.650000	0.989667	0.009048
5882.660000	0.995551	0.009099
5882.670000	1.001472	0.009124
5882.680000	1.004159	0.009116
5882.690000	1.001050	0.009084
5882.700000	0.998346	0.009079
5882.710000	1.002467	0.009126
5882.720000	1.010213	0.009168
5882.730000	1.015080	0.009177
5882.740000	1.006759	0.009123
5882.750000	1.001934	0.009110
5882.760000	1.005876	0.009148
5882.770000	0.999369	0.009119
5882.780000	0.992873	0.009072
5882.790000	0.998025	0.009073
5882.800000	0.999212	0.009082
5882.810000	0.993866	0.009073
5882.820000	0.999669	0.009110
5882.830000	1.010233	0.009159
5882.840000	1.009796	0.009141
5882.850000	0.999574	0.009088
5882.860000	0.992913	0.009078
5882.870000	0.998732	0.009125
5882.880000	1.003902	0.009139
5882.890000	0.996306	0.009075
5882.900000	0.985976	0.009016
5882.910000	0.988953	0.009050
5882.920000	1.002142	0.009127
5882.930000	1.007585	0.009140
5882.940000	1.005167	0.009111
5882.950000	1.001406	0.009092
5882.960000	1.006149	0.009127
5882.970000	1.019226	0.009207
5882.980000	1.011055	0.009145
5882.990000	0.991719	0.009019
5883.000000	0.998101	0.009069
5883.010000	1.008748	0.009138
5883.020000	0.997930	0.009068
5883.030000	0.989370	0.009017
5883.040000	0.992273	0.009031
5883.050000	0.996104	0.009053
5883.060000	0.996361	0.009060
5883.070000	0.991044	0.009029
5883.080000	0.994075	0.009039
5883.090000	0.997546	0.009050
5883.100000	0.988253	0.009006
5883.110000	0.992096	0.009041
5883.120000	1.008186	0.009119
5883.130000	1.006327	0.009084
5883.140000	0.994306	0.009018
5883.150000	0.993821	0.009036
5883.160000	0.994431	0.009050
5883.170000	0.989539	0.009014
5883.180000	0.999144	0.009051
5883.190000	1.009795	0.009109
5883.200000	1.010559	0.009129
5883.210000	1.005032	0.009104
5883.220000	0.997346	0.009056
5883.230000	1.004000	0.009080
5883.240000	1.010340	0.009116
5883.250000	1.001892	0.009078
5883.260000	0.998881	0.009047
5883.270000	1.002885	0.009064
5883.280000	1.001937	0.009074
5883.290000	0.995999	0.009043
5883.300000	0.989083	0.008998
5883.310000	0.988542	0.009001
5883.320000	0.995217	0.009049
5883.330000	1.003906	0.009100
5883.340000	1.010750	0.009131
5883.350000	1.008931	0.009111
5883.360000	0.991402	0.009012
5883.370000	0.980286	0.008960
5883.380000	0.990844	0.009031
5883.390000	0.998094	0.009067
5883.400000	0.993980	0.009037
5883.410000	0.991002	0.009030
5883.420000	0.994803	0.009044
5883.430000	0.999512	0.009058
5883.440000	0.998945	0.009063
5883.450000	1.001274	0.009077
5883.460000	0.998625	0.009067
5883.470000	0.993170	0.009053
5883.480000	0.998693	0.009069
5883.490000	1.000309	0.009060
5883.500000	0.992088	0.009026
5883.510000	0.992218	0.009037
5883.520000	0.996685	0.009070
5883.530000	0.994167	0.009067
5883.540000	0.992622	0.009052
5883.550000	0.995774	0.009062
5883.560000	0.998740	0.009085
5883.570000	0.996863	0.009081
5883.580000	0.994448	0.009071
5883.590000	0.999564	0.009100
5883.600000	1.008381	0.009150
5883.610000	1.007999	0.009149
5883.620000	0.999811	0.009097
5883.630000	0.998915	0.009095
5883.640000	1.002270	0.009131
5883.650000	1.001427	0.009125
5883.660000	1.003670	0.009128
5883.670000	1.006240	0.009150
5883.680000	0.996397	0.009107
5883.690000	0.989480	0.009074
5883.700000	0.999422	0.009139
5883.710000	1.005402	0.009178
5883.720000	1.001355	0.009158
5883.730000	1.005852	0.009173
5883.740000	1.010458	0.009193
5883.750000	0.994748	0.009127
5883.760000	0.987077	0.009109
5883.770000	1.000663	0.009189
5883.780000	1.002729	0.009187
5883.790000	0.999471	0.009159
5883.800000	0.998621	0.009156
5883.810000	0.998050	0.009158
5883.820000	1.005794	0.009195
5883.830000	1.010928	0.009214
5883.840000	1.004714	0.009180
5883.850000	0.996033	0.009137
5883.860000	1.000526	0.009180
5883.870000	1.010425	0.009236
5883.880000	1.009100	0.009203
5883.890000	1.001475	0.009163
5883.900000	0.994341	0.009150
5883.910000	0.997088	0.009170
5883.920000	1.003857	0.009192
5883.930000	1.002572	0.009163
5883.940000	1.000573	0.009143
5883.950000	0.995858	0.009133
5883.960000	0.990962	0.009127
5883.970000	0.993846	0.009134
5883.980000	1.000042	0.009147
5883.990000	1.007144	0.009186
5884.000000	1.007257	0.009195
5884.010000	0.987641	0.009078
5884.020000	0.983376	0.009041
5884.030000	1.003710	0.009154
5884.040000	1.003830	0.009157
5884.050000	0.993374	0.009107
5884.060000	0.994232	0.009123
5884.070000	0.996977	0.009125
5884.080000	0.994614	0.009092
5884.090000	0.990110	0.009076
5884.100000	0.991412	0.009103
5884.110000	0.995123	0.009124
5884.120000	0.997539	0.009127
5884.130000	0.998263	0.009132
5884.140000	0.995798	0.009129
5884.150000	0.995449	0.009118
5884.160000	1.000799	0.009138
5884.170000	1.000365	0.009150
5884.180000	0.993447	0.009116
5884.190000	0.999784	0.009131
5884.200000	1.010830	0.009196
5884.210000	1.002057	0.009178
5884.220000	0.991836	0.009134
5884.230000	0.993501	0.009142
5884.240000	0.985559	0.009113
5884.250000	0.981827	0.009129
5884.260000	1.001396	0.009267
5884.270000	1.011080	0.009349
5884.280000	0.997228	0.009341
5884.290000	0.989037	0.009373
5884.300000	0.999053	0.009468
5884.310000	1.010756	0.009632
5884.320000	1.014055	0.009801
5884.330000	1.005435	0.009752
5884.340000	0.992912	0.009671
5884.350000	0.986351	0.009715
5884.360000	0.993709	0.009827
5884.370000	1.008057	0.009929
5884.380000	1.011068	0.009941
5884.390000	1.007601	0.009918
5884.400000	1.003516	0.009908
5884.410000	0.998982	0.009912
5884.420000	0.994535	0.009921
5884.430000	0.991650	0.009893
5884.440000	0.990257	0.009864
5884.450000	0.989835	0.009896
5884.460000	0.998321	0.009963
5884.470000	1.007927	0.009995
5884.480000	1.000833	0.009957
5884.490000	0.995629	0.009940
5884.500000	1.000989	0.009967
5884.510000	0.993290	0.009928
5884.520000	0.986295	0.009899
5884.530000	0.997289	0.009975
5884.540000	0.995404	0.009975
5884.550000	0.983500	0.009927
5884.560000	0.986421	0.009957
5884.570000	0.991295	0.009977
5884.580000	1.002164	0.010019
5884.590000	1.015569	0.010089
5884.600000	1.003878	0.010011
5884.610000	0.987391	0.009895
5884.620000	0.995724	0.009955
5884.630000	1.008906	0.010044
5884.640000	1.008738	0.010019
5884.650000	1.002981	0.009959
5884.660000	0.995855	0.009895
5884.670000	0.990326	0.009852
5884.680000	0.994009	0.009884
5884.690000	1.002365	0.009922
5884.700000	1.003400	0.009899
5884.710000	1.002244	0.009871
5884.720000	1.006846	0.009884
5884.730000	1.003030	0.009853
5884.740000	0.987272	0.009750
5884.750000	0.990028	0.009743
5884.760000	1.002316	0.009783
5884.770000	0.993244	0.009701
5884.780000	0.987296	0.009631
5884.790000	0.998180	0.009653
5884.800000	0.997985	0.009614
5884.810000	0.989003	0.009539
5884.820000	0.993228	0.009565
5884.830000	0.997888	0.009568
5884.840000	0.994624	0.009503
5884.850000	0.995391	0.009497
5884.860000	1.002057	0.009547
5884.870000	1.007805	0.009570
5884.880000	1.006269	0.009550
5884.890000	0.999674	0.009506
5884.900000	0.995128	0.009464
5884.910000	0.997178	0.009477
5884.920000	0.997692	0.009484
5884.930000	0.994127	0.009442
5884.940000	0.992579	0.009397
5884.950000	0.989656	0.009343
5884.960000	0.990246	0.009316
5884.970000	0.998661	0.009352
5884.980000	0.999549	0.009323
5884.990000	0.995132	0.009233
5885.000000	1.000612	0.009226
5885.010000	1.005525	0.009251
5885.020000	0.999367	0.009208
5885.030000	0.996976	0.009148
5885.040000	1.003800	0.009140
5885.050000	1.003781	0.009135
5885.060000	0.994959	0.009110
5885.070000	0.983108	0.009043
5885.080000	0.982950	0.009013
5885.090000	0.994712	0.009071
5885.100000	0.992268	0.009079
5885.110000	0.990000	0.009072
5885.120000	0.999520	0.009117
5885.130000	0.998715	0.009106
5885.140000	0.989062	0.009043
5885.150000	0.991115	0.009061
5885.160000	1.004473	0.009148
5885.170000	1.006538	0.009156
5885.180000	0.997095	0.009094
5885.190000	0.998854	0.009106
5885.200000	1.005524	0.009162
5885.210000	1.003085	0.009153
5885.220000	1.001521	0.009120
5885.230000	1.000249	0.009099
5885.240000	1.002090	0.009113
5885.250000	1.004072	0.009140
5885.260000	0.996867	0.009117
5885.270000	0.990448	0.009074
5885.280000	0.988337	0.009046
5885.290000	0.994947	0.009089
5885.300000	1.005365	0.009164
5885.310000	1.004997	0.009166
5885.320000	1.007128	0.009158
5885.330000	1.006965	0.009151
5885.340000	0.995662	0.009110
5885.350000	0.994341	0.009111
5885.360000	0.999537	0.009124
5885.370000	0.998841	0.009107
5885.380000	0.997233	0.009099
5885.390000	1.001741	0.009128
5885.400000	1.010443	0.009179
5885.410000	1.006915	0.009161
5885.420000	0.997999	0.009117
5885.430000	0.996954	0.009115
5885.440000	0.996127	0.009114
5885.450000	0.997298	0.009126
5885.460000	1.005821	0.009166
5885.470000	1.011819	0.009200
5885.480000	1.004876	0.009176
5885.490000	1.000268	0.009158
5885.500000	1.007076	0.009204
5885.510000	1.009634	0.009212
5885.520000	1.004181	0.009174
5885.530000	0.996437	0.009143
5885.540000	0.996566	0.009155
5885.550000	1.006317	0.009222
5885.560000	1.008738	0.009247
5885.570000	1.005781	0.009214
5885.580000	1.000429	0.009175
5885.590000	0.997723	0.009179
5885.600000	1.005330	0.009242
5885.610000	1.009293	0.009263
5885.620000	1.008002	0.009240
5885.630000	1.006259	0.009228
5885.640000	1.000723	0.009194
5885.650000	1.004042	0.009223
5885.660000	1.013964	0.009320
5885.670000	1.001406	0.009515
5885.680000	1.008055	0.009849
5885.690000	1.017762	0.009679
5885.700000	1.016641	0.009273
5885.710000	0.998731	0.009190
5885.720000	0.993973	0.009172
5885.730000	0.990416	0.009135
5885.740000	0.992267	0.009127
5885.750000	0.991403	0.009147
5885.760000	1.005671	0.009260
5885.770000	1.016807	0.009315
5885.780000	1.008370	0.009271
5885.790000	1.000057	0.009259
5885.800000	1.002301	0.009282
5885.810000	1.013599	0.009333
5885.820000	1.019376	0.009381
5885.830000	1.019270	0.009401
5885.840000	1.015950	0.009376
5885.850000	1.008732	0.009329
5885.860000	1.005317	0.009305
5885.870000	1.004585	0.009307
5885.880000	1.003440	0.009300
5885.890000	0.999541	0.009275
5885.900000	1.003391	0.009313
5885.910000	1.005949	0.009320
5885.920000	1.000150	0.009284
5885.930000	1.000598	0.009302
5885.940000	0.999802	0.009298
5885.950000	1.005467	0.009323
5885.960000	1.018208	0.009385
5885.970000	1.012891	0.009357
5885.980000	1.003906	0.009326
5885.990000	1.005845	0.009331
5886.000000	1.005207	0.009307
5886.010000	1.000476	0.009282
5886.020000	0.999269	0.009280
5886.030000	1.001416	0.009278
5886.040000	1.009826	0.009314
5886.050000	1.014584	0.009347
5886.060000	1.005598	0.009288
5886.070000	1.003298	0.009254
5886.080000	1.007582	0.009275
5886.090000	1.000283	0.009236
5886.100000	1.001314	0.009238
5886.110000	1.009529	0.009285
5886.120000	1.000231	0.009240
5886.130000	0.991738	0.009197
5886.140000	1.002128	0.009241
5886.150000	1.008778	0.009282
5886.160000	1.004985	0.009275
5886.170000	1.002316	0.009253
5886.180000	0.998853	0.009224
5886.190000	0.998712	0.009220
5886.200000	1.001680	0.009234
5886.210000	1.001587	0.009233
5886.220000	1.000513	0.009224
5886.230000	1.002459	0.009229
5886.240000	1.008436	0.009248
5886.250000	1.015206	0.009274
5886.260000	1.020285	0.009314
5886.270000	1.012987	0.009283
5886.280000	1.001939	0.009210
5886.290000	1.002928	0.009208
5886.300000	1.003267	0.009211
5886.310000	1.003363	0.009214
5886.320000	1.009881	0.009253
5886.330000	1.013683	0.009262
5886.340000	1.006141	0.009215
5886.350000	0.997031	0.009174
5886.360000	0.998140	0.009179
5886.370000	0.999835	0.009187
5886.380000	1.000455	0.009192
5886.390000	1.003045	0.009195
5886.400000	0.999939	0.009161
5886.410000	0.992577	0.009134
5886.420000	0.997228	0.009173
5886.430000	1.006864	0.009201
5886.440000	1.005727	0.009171
5886.450000	1.002281	0.009152
5886.460000	1.000483	0.009149
5886.470000	0.997985	0.009135
5886.480000	0.997401	0.009131
5886.490000	1.000673	0.009140
5886.500000	1.004192	0.009139
5886.510000	1.007461	0.009153
5886.520000	1.008346	0.009166
5886.530000	1.007332	0.009165
5886.540000	1.000326	0.009127
5886.550000	0.993541	0.009083
5886.560000	0.997322	0.009102
5886.570000	1.004629	0.009147
5886.580000	1.007046	0.009167
5886.590000	1.004179	0.009138
5886.600000	0.997677	0.009086
5886.610000	0.996611	0.009092
5886.620000	1.003384	0.009134
5886.630000	1.008409	0.009147
5886.640000	1.007347	0.009138
5886.650000	1.008651	0.009164
5886.660000	1.006759	0.009168
5886.670000	0.993937	0.009088
5886.680000	0.989042	0.009057
5886.690000	0.989944	0.009063
5886.700000	0.987902	0.009049
5886.710000	0.997843	0.009115
5886.720000	1.010059	0.009182
5886.730000	1.005412	0.009146
5886.740000	0.997043	0.009105
5886.750000	0.997408	0.009116
5886.760000	0.997773	0.009126
5886.770000	0.994246	0.009114
5886.780000	0.992968	0.009083
5886.790000	0.996326	0.009082
5886.800000	1.002446	0.009134
5886.810000	1.004185	0.009150
5886.820000	1.000006	0.009111
5886.830000	0.997683	0.009106
5886.840000	0.994130	0.009107
5886.850000	0.995675	0.009111
5886.860000	1.008047	0.009164
5886.870000	1.009109	0.009166
5886.880000	0.998822	0.009107
5886.890000	0.997044	0.009099
5886.900000	0.998485	0.009117
5886.910000	0.996953	0.009128
5886.920000	0.996739	0.009131
5886.930000	0.995512	0.009106
5886.940000	0.992413	0.009096
5886.950000	0.996485	0.009137
5886.960000	1.002592	0.009157
5886.970000	0.998871	0.009119
5886.980000	0.992709	0.009103
5886.990000	0.987929	0.009114
5887.000000	0.986452	0.009128
5887.010000	0.995038	0.009168
5887.020000	1.003498	0.009199
5887.030000	0.996001	0.009169
5887.040000	0.994582	0.009192
5887.050000	1.011766	0.009278
5887.060000	1.011092	0.009257
5887.070000	0.992208	0.009167
5887.080000	0.989853	0.009152
5887.090000	0.999654	0.009204
5887.100000	1.000879	0.009227
5887.110000	1.000564	0.009234
5887.120000	1.010032	0.009287
5887.130000	1.013296	0.009293
5887.140000	1.004337	0.009234
5887.150000	1.005362	0.009251
5887.160000	1.009502	0.009288
5887.170000	1.002905	0.009235
5887.180000	1.001794	0.009212
5887.190000	1.005764	0.009244
5887.200000	1.006283	0.009269
5887.210000	0.999617	0.009240
5887.220000	0.992263	0.009174
5887.230000	0.994536	0.009164
5887.240000	1.005402	0.009233
5887.250000	1.011375	0.009283
5887.260000	1.009876	0.009275
5887.270000	1.009726	0.009259
5887.280000	1.008402	0.009254
5887.290000	1.005856	0.009239
5887.300000	0.998112	0.009191
5887.310000	0.986801	0.009144
5887.320000	0.992328	0.009166
5887.330000	1.011667	0.009248
5887.340000	1.014193	0.009274
5887.350000	1.006669	0.009246
5887.360000	1.006322	0.009239
5887.370000	1.003538	0.009212
5887.380000	1.002040	0.009198
5887.390000	1.000311	0.009194
5887.400000	0.997305	0.009180
5887.410000	0.999466	0.009189
5887.420000	1.005816	0.009221
5887.430000	1.008548	0.009255
5887.440000	0.999184	0.009221
5887.450000	0.999361	0.009219
5887.460000	1.013582	0.009295
5887.470000	1.014018	0.009289
5887.480000	1.000658	0.009222
5887.490000	0.997099	0.009233
5887.500000	1.007502	0.009290
5887.510000	1.011606	0.009300
5887.520000	1.002626	0.009266
5887.530000	0.998676	0.009248
5887.540000	1.002780	0.009271
5887.550000	1.003612	0.009280
5887.560000	1.002471	0.009256
5887.570000	0.999066	0.009225
5887.580000	1.001051	0.009259
5887.590000	1.007011	0.009315
5887.600000	1.009863	0.009309
5887.610000	1.011749	0.009298
5887.620000	1.004575	0.009269
5887.630000	0.997376	0.009240
5887.640000	1.000663	0.009257
5887.650000	1.006176	0.009272
5887.660000	1.013921	0.009302
5887.670000	1.011892	0.009295
5887.680000	0.992259	0.009193
5887.690000	0.982379	0.009126
5887.700000	0.991145	0.009160
5887.710000	1.000994	0.009217
5887.720000	1.001192	0.009223
5887.730000	0.996946	0.009189
5887.740000	0.992322	0.009145
5887.750000	0.994461	0.009145
5887.760000	1.004295	0.009197
5887.770000	1.002778	0.009201
5887.780000	0.999230	0.009174
5887.790000	0.995676	0.009143
5887.800000	0.985986	0.009101
5887.810000	0.987139	0.009098
5887.820000	0.998991	0.009148
5887.830000	1.003948	0.009190
5887.840000	0.990596	0.009134
5887.850000	0.984431	0.009094
5887.860000	1.001035	0.009166
5887.870000	1.005749	0.009177
5887.880000	0.993431	0.009127
5887.890000	0.988791	0.009124
5887.900000	0.991729	0.009118
5887.910000	0.996650	0.009117
5887.920000	0.998810	0.009144
5887.930000	0.999202	0.009172
5887.940000	1.001236	0.009188
5887.950000	1.002326	0.009183
5887.960000	1.003771	0.009171
5887.970000	1.004249	0.009168
5887.980000	1.004627	0.009197
5887.990000	1.000991	0.009187
5888.000000	0.996757	0.009146
5888.010000	0.997400	0.009151
5888.020000	1.004552	0.009191
5888.030000	1.009491	0.009210
5888.040000	1.000947	0.009170
5888.050000	0.993571	0.009143
5888.060000	0.997987	0.009160
5888.070000	1.002859	0.009175
5888.080000	1.001286	0.009169
5888.090000	1.000378	0.009165
5888.100000	1.000453	0.009155
5888.110000	0.997402	0.009134
5888.120000	0.998639	0.009153
5888.130000	0.997366	0.009150
5888.140000	0.995255	0.009129
5888.150000	1.002733	0.009167
5888.160000	1.008139	0.009199
5888.170000	1.004828	0.009183
5888.180000	0.997093	0.009148
5888.190000	0.990647	0.009119
5888.200000	0.989321	0.009110
5888.210000	0.998757	0.009160
5888.220000	1.007336	0.009203
5888.230000	1.005384	0.009185
5888.240000	1.003463	0.009179
5888.250000	1.002307	0.009181
5888.260000	0.998578	0.009171
5888.270000	0.993956	0.009151
5888.280000	0.988953	0.009110
5888.290000	0.989842	0.009120
5888.300000	1.001640	0.009209
5888.310000	1.006319	0.009233
5888.320000	0.996304	0.009162
5888.330000	0.987322	0.009098
5888.340000	0.990246	0.009109
5888.350000	0.994247	0.009148
5888.360000	0.989956	0.009140
5888.370000	0.986233	0.009121
5888.380000	0.990366	0.009141
5888.390000	0.994661	0.009164
5888.400000	0.993248	0.009163
5888.410000	0.994310	0.009179
5888.420000	0.999779	0.009194
5888.430000	1.000671	0.009195
5888.440000	0.998343	0.009193
5888.450000	0.997970	0.009179
5888.460000	1.000815	0.009187
5888.470000	0.995765	0.009175
5888.480000	0.993261	0.009178
5888.490000	1.005978	0.009243
5888.500000	1.003546	0.009229
5888.510000	0.991603	0.009186
5888.520000	0.996103	0.009224
5888.530000	1.004657	0.009274
5888.540000	1.005135	0.009275
5888.550000	1.002675	0.009255
5888.560000	0.996423	0.009223
5888.570000	0.991784	0.009203
5888.580000	0.998398	0.009247
5888.590000	1.009239	0.009308
5888.600000	1.015629	0.009337
5888.610000	1.012295	0.009312
5888.620000	1.002429	0.009254
5888.630000	0.996053	0.009228
5888.640000	0.995873	0.009233
5888.650000	0.995488	0.009239
5888.660000	0.999242	0.009268
5888.670000	1.006638	0.009295
5888.680000	1.007327	0.009289
5888.690000	1.001370	0.009270
5888.700000	0.999834	0.009277
5888.710000	1.004520	0.009286
5888.720000	0.999516	0.009230
5888.730000	0.993151	0.009218
5888.740000	0.992747	0.009251
5888.750000	0.993315	0.009233
5888.760000	0.996661	0.009235
5888.770000	1.001287	0.009276
5888.780000	1.002245	0.009287
5888.790000	0.996922	0.009252
5888.800000	0.994854	0.009237
5888.810000	1.002344	0.009272
5888.820000	1.006005	0.009292
5888.830000	0.999923	0.009269
5888.840000	1.002905	0.009294
5888.850000	1.005827	0.009303
5888.860000	0.990926	0.009212
5888.870000	0.985759	0.009197
5888.880000	0.993334	0.009248
5888.890000	0.999426	0.009265
5888.900000	1.008005	0.009319
5888.910000	1.009137	0.009350
5888.920000	0.999191	0.009299
5888.930000	0.994434	0.009276
5888.940000	1.006014	0.009347
5888.950000	1.011363	0.009367
5888.960000	1.004317	0.009315
5888.970000	1.004617	0.009329
5888.980000	1.002487	0.009321
5888.990000	1.000787	0.009302
5889.000000	1.011486	0.009364
5889.010000	1.010213	0.009359
5889.020000	1.006723	0.009343
5889.030000	1.011658	0.009369
5889.040000	1.009923	0.009358
5889.050000	1.007852	0.009371
5889.060000	1.008706	0.009388
5889.070000	1.008058	0.009368
5889.080000	1.005130	0.009353
5889.090000	1.006471	0.009373
5889.100000	1.009362	0.009394
5889.110000	1.005087	0.009383
5889.120000	1.006630	0.009410
5889.130000	1.010393	0.009433
5889.140000	1.002611	0.009385
5889.150000	0.998272	0.009369
5889.160000	1.007584	0.009419
5889.170000	1.006455	0.009405
5889.180000	0.998663	0.009370
5889.190000	0.997085	0.009366
5889.200000	1.001058	0.009379
5889.210000	1.001597	0.009377
5889.220000	0.992841	0.009346
5889.230000	0.993521	0.009366
5889.240000	1.004389	0.009420
5889.250000	1.004465	0.009414
5889.260000	0.996248	0.009373
5889.270000	0.999801	0.009389
5889.280000	1.001937	0.009415
5889.290000	0.999679	0.009422
5889.300000	1.005436	0.009441
5889.310000	1.004118	0.009445
5889.320000	0.997180	0.009448
5889.330000	0.995839	0.009444
5889.340000	1.003165	0.009467
5889.350000	1.001057	0.009453
5889.360000	0.991045	0.009399
5889.370000	1.000550	0.009453
5889.380000	1.007705	0.009505
5889.390000	1.000085	0.009481
5889.400000	0.997585	0.009485
5889.410000	1.004742	0.009542
5889.420000	1.008597	0.009570
5889.430000	0.999823	0.009540
5889.440000	0.998253	0.009550
5889.450000	1.001395	0.009558
5889.460000	0.998738	0.009542
5889.470000	1.003644	0.009590
5889.480000	1.006248	0.009622
5889.490000	1.003217	0.009615
5889.500000	0.999065	0.009598
5889.510000	1.002380	0.009594
5889.520000	1.004684	0.009708
5889.530000	1.004285	0.009799
5889.540000	1.010836	0.009712
5889.550000	1.010695	0.009675
5889.560000	1.017134	0.009723
5889.570000	1.013502	0.009724
5889.580000	1.001190	0.009660
5889.590000	0.999302	0.009641
5889.600000	1.006237	0.009678
5889.610000	1.004298	0.009668
5889.620000	0.994494	0.009636
5889.630000	0.994183	0.009660
5889.640000	0.996657	0.009684
5889.650000	0.997689	0.009703
5889.660000	1.001754	0.009729
5889.670000	1.009310	0.009773
5889.680000	1.006788	0.009777
5889.690000	0.997138	0.009731
5889.700000	0.996470	0.009724
5889.710000	1.002900	0.009759
5889.720000	1.005341	0.009788
5889.730000	0.997716	0.009761
5889.740000	0.999171	0.009763
5889.750000	1.007444	0.009825
5889.760000	1.008244	0.009848
5889.770000	1.005388	0.009836
5889.780000	0.998531	0.009810
5889.790000	0.995083	0.009792
5889.800000	0.999078	0.009827
5889.810000	1.003951	0.009886
5889.820000	1.004206	0.009884
5889.830000	1.001139	0.009867
5889.840000	0.994492	0.009879
5889.850000	0.991475	0.009891
5889.860000	0.999327	0.009934
5889.870000	1.008567	0.010029
5889.880000	1.009745	0.010081
5889.890000	1.006392	0.010084
5889.900000	1.009472	0.010137
5889.910000	1.006487	0.010143
5889.920000	0.998660	0.010124
5889.930000	1.003340	0.010206
5889.940000	1.004524	0.010260
5889.950000	0.992759	0.010229
5889.960000	0.987992	0.010223
5889.970000	0.997498	0.010318
5889.980000	1.007582	0.010456
5889.990000	1.012173	0.010613
5890.000000	1.003223	0.010740
5890.010000	0.992309	0.010858
5890.020000	0.990438	0.010989
5890.030000	0.986090	0.011065
5890.040000	0.986615	0.011232
5890.050000	0.994017	0.011493
5890.060000	1.002630	0.011698
5890.070000	1.019232	0.012018
5890.080000	1.023481	0.012186
5890.090000	1.010664	0.012020
5890.100000	1.008526	0.012030
5890.110000	1.011012	0.012141
5890.120000	1.007359	0.012241
5890.130000	1.000652	0.012313
5890.140000	0.995887	0.012282
5890.150000	1.002670	0.012267
5890.160000	1.019530	0.012496
5890.170000	1.014354	0.012571
5890.180000	0.980740	0.012256
5890.190000	0.975984	0.012198
5890.200000	1.005401	0.012605
5890.210000	1.019352	0.012827
5890.220000	1.014624	0.012792
5890.230000	1.006676	0.012719
5890.240000	0.999486	0.012733
5890.250000	0.999223	0.012915
5890.260000	1.015696	0.013202
5890.270000	1.013417	0.013319
5890.280000	0.994377	0.013270
5890.290000	0.994834	0.013269
5890.300000	0.995178	0.013274
5890.310000	0.989544	0.013321
5890.320000	0.994641	0.013526
5890.330000	1.008703	0.013733
5890.340000	1.003164	0.013682
5890.350000	0.977117	0.013658
5890.360000	0.985126	0.014053
5890.370000	1.013241	0.014740
5890.380000	1.013481	0.015239
5890.390000	0.983922	0.015311
5890.400000	0.969123	0.015609
5890.410000	0.983981	0.016375
5890.420000	0.986024	0.017108
5890.430000	0.999040	0.018281
5890.440000	1.010391	0.019263
5890.450000	0.988402	0.019090
5890.460000	0.974901	0.018680
5890.470000	0.973662	0.018940
5890.480000	0.993661	0.021561
5890.490000	0.986069	0.022430
5890.500000	0.970855	0.020996
5890.510000	1.021587	0.023070
5890.520000	1.020162	0.023749
5890.530000	0.996780	0.023924
5890.540000	1.003053	0.025713
5890.550000	1.022998	0.025985
5890.560000	0.972740	0.023586
5890.570000	0.956137	0.022274
5890.580000	0.985709	0.023848
5890.590000	0.987783	0.025010
5890.600000	0.969922	0.024824
5890.610000	0.972944	0.023329
5890.620000	1.015232	0.024288
5890.630000	1.033233	0.025477
5890.640000	1.029726	0.025814
5890.650000	1.017014	0.025213
5890.660000	0.956051	0.022414
5890.670000	0.935205	0.022059
5890.680000	0.978668	0.023981
5890.690000	0.993467	0.024319
5890.700000	0.941392	0.022615
5890.710000	0.916388	0.022381
5890.720000	0.965585	0.023418
5890.730000	0.983626	0.023828
5890.740000	0.953811	0.023133
5890.750000	0.953185	0.023527
5890.760000	0.969166	0.023325
5890.770000	0.985536	0.023012
5890.780000	1.008289	0.024490
5890.790000	1.023101	0.025204
5890.800000	1.036902	0.024327
5890.810000	1.030053	0.023657
5890.820000	0.985597	0.023209
5890.830000	0.974626	0.023407
5890.840000	0.978265	0.022516
5890.850000	0.967133	0.021812
5890.860000	0.991582	0.022540
5890.870000	1.029167	0.023635
5890.880000	1.026807	0.023973
5890.890000	0.988782	0.022013
5890.900000	0.975532	0.020603
5890.910000	1.003395	0.021356
5890.920000	1.033754	0.021967
5890.930000	1.036380	0.021723
5890.940000	0.997128	0.020944
5890.950000	0.962665	0.020210
5890.960000	0.971730	0.019346
5890.970000	0.964737	0.018744
5890.980000	0.953343	0.018603
5890.990000	0.981724	0.018919
5891.000000	0.990441	0.018630
5891.010000	0.982340	0.018373
5891.020000	1.000517	0.018865
5891.030000	1.018454	0.019439
5891.040000	1.016310	0.019116
5891.050000	0.999289	0.018141
5891.060000	0.971573	0.017039
5891.070000	0.988807	0.017575
5891.080000	1.019935	0.018600
5891.090000	0.999325	0.016546
5891.100000	1.006337	0.015994
5891.110000	1.024903	0.016732
5891.120000	1.002702	0.015776
5891.130000	0.977716	0.014332
5891.140000	0.982886	0.013963
5891.150000	1.010594	0.014058
5891.160000	1.007266	0.013522
5891.170000	0.979735	0.012747
5891.180000	0.991911	0.012573
5891.190000	1.010310	0.012423
5891.200000	1.002791	0.012067
5891.210000	1.006752	0.011927
5891.220000	1.006851	0.011830
5891.230000	0.986846	0.011562
5891.240000	0.988989	0.011444
5891.250000	1.006148	0.011468
5891.260000	1.003407	0.011350
5891.270000	0.997299	0.011228
5891.280000	0.996084	0.011165
5891.290000	0.993721	0.011064
5891.300000	0.995317	0.011009
5891.310000	0.998485	0.011013
5891.320000	0.998105	0.010952
5891.330000	0.989790	0.010838
5891.340000	0.992924	0.010839
5891.350000	1.010444	0.010892
5891.360000	1.003799	0.010776
5891.370000	0.982101	0.010601
5891.380000	0.985385	0.010579
5891.390000	1.000686	0.010628
5891.400000	1.002579	0.010597
5891.410000	1.011633	0.010617
5891.420000	1.020626	0.010644
5891.430000	1.007088	0.010542
5891.440000	1.006067	0.010503
5891.450000	1.014612	0.010503
5891.460000	1.013268	0.010485
5891.470000	1.011689	0.010466
5891.480000	1.003439	0.010381
5891.490000	0.994504	0.010308
5891.500000	1.000144	0.010305
5891.510000	1.000662	0.010276
5891.520000	0.991401	0.010216
5891.530000	0.999248	0.010249
5891.540000	1.008800	0.010270
5891.550000	1.004225	0.010181
5891.560000	1.000903	0.010124
5891.570000	1.005859	0.010160
5891.580000	1.010463	0.010181
5891.590000	1.006873	0.010140
5891.600000	1.002867	0.010101
5891.610000	1.000974	0.010056
5891.620000	0.996481	0.009988
5891.630000	0.992994	0.009969
5891.640000	0.992365	0.009964
5891.650000	1.000998	0.009994
5891.660000	1.005981	0.010015
5891.670000	0.997190	0.009942
5891.680000	0.993829	0.009917
5891.690000	1.000278	0.009968
5891.700000	1.007015	0.009989
5891.710000	1.002972	0.009950
5891.720000	0.995860	0.009905
5891.730000	1.006090	0.009966
5891.740000	1.016085	0.010008
5891.750000	1.012003	0.009942
5891.760000	1.004365	0.009873
5891.770000	0.995662	0.009820
5891.780000	0.991152	0.009790
5891.790000	0.991446	0.009778
5891.800000	0.997030	0.009796
5891.810000	1.000855	0.009816
5891.820000	1.001430	0.009827
5891.830000	1.001111	0.009804
5891.840000	1.000907	0.009763
5891.850000	1.001321	0.009761
5891.860000	0.995838	0.009740
5891.870000	0.991764	0.009690
5891.880000	0.995010	0.009684
5891.890000	0.993864	0.009674
5891.900000	0.988642	0.009647
5891.910000	0.988077	0.009658
5891.920000	0.994623	0.009705
5891.930000	0.998845	0.009711
5891.940000	0.998667	0.009688
5891.950000	0.999205	0.009688
5891.960000	0.994972	0.009669
5891.970000	0.991349	0.009627
5891.980000	0.995286	0.009641
5891.990000	0.995810	0.009653
5892.000000	0.988809	0.009614
5892.010000	0.981677	0.009574
5892.020000	0.984616	0.009573
5892.030000	0.992948	0.009609
5892.040000	0.995648	0.009617
5892.050000	1.001011	0.009624
5892.060000	1.008747	0.009663
5892.070000	1.008421	0.009665
5892.080000	1.000444	0.009614
5892.090000	0.997220	0.009574
5892.100000	0.998646	0.009562
5892.110000	0.997778	0.009556
5892.120000	1.001770	0.009579
5892.130000	1.002687	0.009563
5892.140000	0.996864	0.009501
5892.150000	0.992015	0.009477
5892.160000	0.994617	0.009491
5892.170000	0.997914	0.009491
5892.180000	1.001589	0.009519
5892.190000	1.003521	0.009528
5892.200000	0.998388	0.009477
5892.210000	0.998879	0.009489
5892.220000	0.999097	0.009512
5892.230000	0.997037	0.009487
5892.240000	1.005444	0.009510
5892.250000	1.016466	0.009588
5892.260000	1.012840	0.009591
5892.270000	1.003626	0.009517
5892.280000	0.998487	0.009455
5892.290000	0.994423	0.009437
5892.300000	0.998301	0.009472
5892.310000	1.010461	0.009531
5892.320000	1.011966	0.009531
5892.330000	1.002247	0.009473
5892.340000	0.998219	0.009432
5892.350000	0.998331	0.009426
5892.360000	1.001662	0.009452
5892.370000	1.004551	0.009447
5892.380000	1.005800	0.009431
5892.390000	1.001414	0.009412
5892.400000	0.995519	0.009379
5892.410000	1.000751	0.009407
5892.420000	1.005635	0.009439
5892.430000	1.006800	0.009425
5892.440000	1.002977	0.009368
5892.450000	0.995457	0.009334
5892.460000	0.995839	0.009369
5892.470000	1.004425	0.009413
5892.480000	1.013830	0.009438
5892.490000	1.008380	0.009398
5892.500000	1.001022	0.009346
5892.510000	1.005004	0.009361
5892.520000	0.997854	0.009336
5892.530000	0.986366	0.009277
5892.540000	0.995001	0.009316
5892.550000	1.009961	0.009395
5892.560000	1.003425	0.009353
5892.570000	0.991093	0.009290
5892.580000	0.996874	0.009329
5892.590000	1.005371	0.009363
5892.600000	1.009843	0.009377
5892.610000	1.009411	0.009383
5892.620000	0.996881	0.009321
5892.630000	0.994550	0.009298
5892.640000	1.007206	0.009349
5892.650000	1.013667	0.009378
5892.660000	1.002283	0.009325
5892.670000	0.991104	0.009269
5892.680000	0.995085	0.009279
5892.690000	1.001195	0.009308
5892.700000	1.011969	0.009368
5892.710000	1.016309	0.009371
5892.720000	1.002928	0.009290
5892.730000	0.994064	0.009270
5892.740000	0.995677	0.009282
5892.750000	1.000022	0.009290
5892.760000	1.002390	0.009299
5892.770000	1.006989	0.009326
5892.780000	1.006712	0.009323
5892.790000	0.997649	0.009261
5892.800000	0.998682	0.009257
5892.810000	1.003929	0.009281
5892.820000	0.995216	0.009244
5892.830000	0.994129	0.009256
5892.840000	0.999094	0.009283
5892.850000	0.994071	0.009251
5892.860000	0.993868	0.009264
5892.870000	0.999680	0.009304
5892.880000	1.001338	0.009306
5892.890000	0.996460	0.009261
5892.900000	0.992381	0.009231
5892.910000	1.000327	0.009287
5892.920000	1.001905	0.009294
5892.930000	0.993247	0.009233
5892.940000	0.997735	0.009269
5892.950000	1.003003	0.009308
5892.960000	1.007523	0.009321
5892.970000	1.007828	0.009323
5892.980000	0.997611	0.009281
5892.990000	0.998003	0.009270
5893.000000	0.998007	0.009260
5893.010000	0.998013	0.009278
5893.020000	1.012373	0.009365
5893.030000	1.008393	0.009332
5893.040000	0.993112	0.009232
5893.050000	1.000181	0.009259
5893.060000	1.008202	0.009315
5893.070000	0.996659	0.009275
5893.080000	0.988075	0.009226
5893.090000	1.000512	0.009280
5893.100000	1.006498	0.009294
5893.110000	0.996283	0.009233
5893.120000	0.994416	0.009236
5893.130000	0.996449	0.009247
5893.140000	0.992631	0.009234
5893.150000	0.989815	0.009229
5893.160000	0.993306	0.009258
5893.170000	0.999299	0.009304
5893.180000	0.995798	0.009302
5893.190000	0.994499	0.009324
5893.200000	0.995935	0.009347
5893.210000	1.003788	0.009405
5893.220000	1.012715	0.009460
5893.230000	1.002827	0.009403
5893.240000	0.994267	0.009384
5893.250000	0.994261	0.009419
5893.260000	0.995783	0.009438
5893.270000	1.003510	0.009500
5893.280000	1.005430	0.009549
5893.290000	0.992391	0.009497
5893.300000	0.984145	0.009454
5893.310000	0.996588	0.009586
5893.320000	1.009995	0.009761
5893.330000	1.000133	0.009762
5893.340000	0.996673	0.009807
5893.350000	1.013418	0.010024
5893.360000	1.011858	0.010105
5893.370000	1.002786	0.010138
5893.380000	1.007655	0.010298
5893.390000	0.999555	0.010273
5893.400000	0.993971	0.010287
5893.410000	1.006992	0.010474
5893.420000	1.004501	0.010471
5893.430000	0.989514	0.010336
5893.440000	0.996430	0.010416
5893.450000	1.009872	0.010585
5893.460000	1.016621	0.010685
5893.470000	1.011629	0.010645
5893.480000	0.995898	0.010469
5893.490000	0.989623	0.010413
5893.500000	0.999247	0.010536
5893.510000	1.004216	0.010552
5893.520000	1.000674	0.010508
5893.530000	0.997675	0.010507
5893.540000	0.999184	0.010482
5893.550000	1.001625	0.010522
5893.560000	0.992727	0.010470
5893.570000	0.979284	0.010320
5893.580000	0.983643	0.010365
5893.590000	0.989612	0.010435
5893.600000	0.988610	0.010440
5893.610000	0.998261	0.010514
5893.620000	1.009157	0.010604
5893.630000	1.007718	0.010577
5893.640000	1.000725	0.010490
5893.650000	1.003333	0.010477
5893.660000	1.008289	0.010486
5893.670000	0.999261	0.010427
5893.680000	0.990811	0.010363
5893.690000	0.994715	0.010336
5893.700000	0.997963	0.010354
5893.710000	0.998078	0.010367
5893.720000	0.994310	0.010328
5893.730000	0.989194	0.010312
5893.740000	1.001894	0.010350
5893.750000	1.013180	0.010378
5893.760000	0.999645	0.010260
5893.770000	0.980681	0.010105
5893.780000	0.984747	0.010116
5893.790000	1.001533	0.010235
5893.800000	1.002797	0.010256
5893.810000	1.000496	0.010178
5893.820000	1.002750	0.010106
5893.830000	0.993164	0.009999
5893.840000	0.996511	0.009982
5893.850000	1.008714	0.010007
5893.860000	0.996915	0.009888
5893.870000	0.996920	0.009849
5893.880000	1.013009	0.009901
5893.890000	1.005532	0.009842
5893.900000	0.996415	0.009776
5893.910000	0.997662	0.009745
5893.920000	0.994730	0.009717
5893.930000	1.001034	0.009752
5893.940000	1.012783	0.009810
5893.950000	1.007372	0.009779
5893.960000	1.000345	0.009729
5893.970000	0.997870	0.009677
5893.980000	0.994018	0.009626
5893.990000	0.993963	0.009598
5894.000000	1.000957	0.009582
5894.010000	1.001113	0.009549
5894.020000	0.995933	0.009502
5894.030000	0.999393	0.009475
5894.040000	0.997200	0.009394
5894.050000	0.992223	0.009304
5894.060000	0.997416	0.009279
5894.070000	1.009219	0.009313
5894.080000	1.011045	0.009302
5894.090000	0.998983	0.009199
5894.100000	0.997289	0.009177
5894.110000	1.003757	0.009213
5894.120000	1.004734	0.009217
5894.130000	1.001255	0.009216
5894.140000	0.993102	0.009178
5894.150000	0.987932	0.009133
5894.160000	0.986623	0.009109
5894.170000	0.984842	0.009113
5894.180000	0.997734	0.009200
5894.190000	1.007719	0.009232
5894.200000	1.001458	0.009178
5894.210000	1.003937	0.009214
5894.220000	1.001999	0.009242
5894.230000	0.993898	0.009186
5894.240000	0.996721	0.009163
5894.250000	1.000669	0.009187
5894.260000	1.004618	0.009222
5894.270000	1.013935	0.009284
5894.280000	1.023306	0.009334
5894.290000	1.014433	0.009260
5894.300000	0.994961	0.009155
5894.310000	0.997636	0.009178
5894.320000	1.007523	0.009237
5894.330000	1.000423	0.009197
5894.340000	0.988855	0.009131
5894.350000	0.998492	0.009192
5894.360000	1.013512	0.009265
5894.370000	1.004863	0.009217
5894.380000	0.995974	0.009183
5894.390000	1.005513	0.009227
5894.400000	1.004213	0.009206
5894.410000	0.993103	0.009148
5894.420000	1.001843	0.009199
5894.430000	1.014095	0.009260
5894.440000	1.006641	0.009222
5894.450000	1.002179	0.009187
5894.460000	0.995939	0.009136
5894.470000	0.992224	0.009142
5894.480000	1.000244	0.009215
5894.490000	1.007897	0.009233
5894.500000	1.014151	0.009256
5894.510000	1.002734	0.009195
5894.520000	0.997926	0.009165
5894.530000	1.011894	0.009234
5894.540000	1.009582	0.009235
5894.550000	0.998561	0.009183
5894.560000	1.005471	0.009214
5894.570000	1.004448	0.009211
5894.580000	0.991608	0.009142
5894.590000	0.996690	0.009165
5894.600000	1.002912	0.009195
5894.610000	1.003365	0.009196
5894.620000	1.006895	0.009225
5894.630000	0.999126	0.009195
5894.640000	0.987031	0.009112
5894.650000	0.986883	0.009087
5894.660000	0.996353	0.009155
5894.670000	0.996215	0.009174
5894.680000	0.995506	0.009160
5894.690000	1.005244	0.009217
5894.700000	1.002091	0.009212
5894.710000	0.996911	0.009181
5894.720000	1.002877	0.009212
5894.730000	1.013971	0.009271
5894.740000	1.012328	0.009263
5894.750000	1.000021	0.009211
5894.760000	0.992407	0.009180
5894.770000	0.991274	0.009162
5894.780000	0.998888	0.009203
5894.790000	1.003065	0.009232
5894.800000	0.997519	0.009190
5894.810000	1.001194	0.009214
5894.820000	1.001611	0.009238
5894.830000	0.997138	0.009205
5894.840000	0.997350	0.009181
5894.850000	1.004289	0.009221
5894.860000	1.011720	0.009278
5894.870000	1.012000	0.009291
5894.880000	1.008332	0.009273
5894.890000	1.001253	0.009217
5894.900000	0.991487	0.009150
5894.910000	0.997577	0.009205
5894.920000	1.014027	0.009323
5894.930000	1.004907	0.009270
5894.940000	0.994567	0.009198
5894.950000	1.005440	0.009243
5894.960000	1.008663	0.009272
5894.970000	1.000710	0.009258
5894.980000	1.000560	0.009260
5894.990000	1.003767	0.009268
5895.000000	0.997761	0.009222
5895.010000	0.999914	0.009234
5895.020000	1.004621	0.009262
5895.030000	0.995628	0.009207
5895.040000	0.996227	0.009233
5895.050000	1.009475	0.009303
5895.060000	1.009780	0.009298
5895.070000	1.001296	0.009261
5895.080000	1.004796	0.009259
5895.090000	1.004836	0.009247
5895.100000	0.998070	0.009226
5895.110000	1.006081	0.009283
5895.120000	1.006219	0.009291
5895.130000	0.993779	0.009201
5895.140000	0.992920	0.009164
5895.150000	1.003234	0.009235
5895.160000	1.004957	0.009278
5895.170000	0.997575	0.009239
5895.180000	0.990656	0.009188
5895.190000	0.992185	0.009197
5895.200000	1.005199	0.009260
5895.210000	1.007875	0.009274
5895.220000	1.001320	0.009255
5895.230000	1.004593	0.009274
5895.240000	1.006823	0.009278
5895.250000	1.004113	0.009263
5895.260000	1.001613	0.009254
5895.270000	0.996548	0.009218
5895.280000	0.991325	0.009178
5895.290000	0.997373	0.009222
5895.300000	1.005579	0.009285
5895.310000	1.004155	0.009275
5895.320000	1.000312	0.009257
5895.330000	0.997360	0.009243
5895.340000	0.993557	0.009207
5895.350000	1.003572	0.009276
5895.360000	1.008126	0.009324
5895.370000	0.996898	0.009243
5895.380000	0.991259	0.009205
5895.390000	0.995299	0.009244
5895.400000	1.000548	0.009271
5895.410000	1.003182	0.009299
5895.420000	0.998272	0.009285
5895.430000	0.990539	0.009220
5895.440000	0.997537	0.009242
5895.450000	1.008708	0.009329
5895.460000	1.003671	0.009334
5895.470000	0.987806	0.009238
5895.480000	0.975222	0.009157
5895.490000	0.984544	0.009224
5895.500000	1.001444	0.009325
5895.510000	0.998853	0.009304
5895.520000	0.988022	0.009237
5895.530000	0.992579	0.009280
5895.540000	0.997848	0.009321
5895.550000	0.993633	0.009280
5895.560000	0.993373	0.009285
5895.570000	0.993161	0.009297
5895.580000	0.993973	0.009287
5895.590000	0.986970	0.009252
5895.600000	0.981482	0.009239
5895.610000	0.991095	0.009300
5895.620000	0.998866	0.009338
5895.630000	0.999833	0.009341
5895.640000	0.997817	0.009350
5895.650000	0.992133	0.009337
5895.660000	0.991033	0.009334
5895.670000	0.999321	0.009369
5895.680000	1.002741	0.009372
5895.690000	0.998735	0.009364
5895.700000	0.994423	0.009371
5895.710000	0.998549	0.009413
5895.720000	1.001459	0.009426
5895.730000	0.999504	0.009402
5895.740000	0.997525	0.009390
5895.750000	0.998606	0.009406
5895.760000	0.993799	0.009391
5895.770000	0.990796	0.009389
5895.780000	1.001224	0.009443
5895.790000	1.002833	0.009464
5895.800000	0.999398	0.009476
5895.810000	1.002482	0.009493
5895.820000	1.005836	0.009499
5895.830000	1.007823	0.009517
5895.840000	0.997678	0.009492
5895.850000	0.997896	0.009508
5895.860000	1.003540	0.009541
5895.870000	0.995683	0.009517
5895.880000	0.999275	0.009561
5895.890000	1.009067	0.009633
5895.900000	1.002493	0.009611
5895.910000	0.991466	0.009546
5895.920000	0.991761	0.009561
5895.930000	0.994909	0.009628
5895.940000	0.996137	0.009660
5895.950000	1.000350	0.009705
5895.960000	1.001084	0.009790
5895.970000	0.999975	0.009846
5895.980000	0.996462	0.009867
5895.990000	0.994030	0.009981
5896.000000	0.998564	0.010141
5896.010000	1.001161	0.010221
5896.020000	0.995180	0.010210
5896.030000	0.989710	0.010226
5896.040000	1.000839	0.010404
5896.050000	1.004426	0.010454
5896.060000	0.995134	0.010386
5896.070000	1.003471	0.010502
5896.080000	1.010237	0.010605
5896.090000	0.995176	0.010532
5896.100000	0.983596	0.010473
5896.110000	0.992396	0.010603
5896.120000	1.004448	0.010785
5896.130000	1.009857	0.010870
5896.140000	1.007629	0.010838
5896.150000	1.000121	0.010816
5896.160000	1.001447	0.010930
5896.170000	1.004922	0.011016
5896.180000	0.996827	0.010973
5896.190000	0.993004	0.010975
5896.200000	0.994385	0.011045
5896.210000	0.990620	0.011087
5896.220000	0.996111	0.011198
5896.230000	1.003032	0.011280
5896.240000	1.004837	0.011368
5896.250000	1.011270	0.011547
5896.260000	1.002790	0.011549
5896.270000	0.991311	0.011498
5896.280000	1.000382	0.011723
5896.290000	1.000976	0.011884
5896.300000	1.005108	0.011955
5896.310000	1.019701	0.012184
5896.320000	1.017712	0.012411
5896.330000	1.008113	0.012615
5896.340000	0.995413	0.012746
5896.350000	0.986592	0.012996
5896.360000	1.002572	0.013634
5896.370000	1.020107	0.014091
5896.380000	1.019311	0.014452
5896.390000	1.015671	0.015580
5896.400000	1.011222	0.016855
5896.410000	1.002876	0.017088
5896.420000	1.015569	0.017973
5896.430000	1.004922	0.018182
5896.440000	0.966241	0.017651
5896.450000	1.014448	0.020840
5896.460000	1.000173	0.023079
5896.470000	1.032179	0.022190
5896.480000	0.978473	0.021203
5896.490000	0.971281	0.020104
5896.500000	1.027108	0.021622
5896.510000	1.017794	0.022109
5896.520000	0.982440	0.020858
5896.530000	1.009211	0.022448
5896.540000	1.010533	0.022398
5896.550000	0.999687	0.021868
5896.560000	1.030245	0.023048
5896.570000	1.004546	0.022669
5896.580000	0.956429	0.021469
5896.590000	0.965163	0.021486
5896.600000	1.000442	0.022436
5896.610000	0.990837	0.021660
5896.620000	0.984834	0.021660
5896.630000	1.008773	0.023473
5896.640000	0.987700	0.023104
5896.650000	0.979161	0.022360
5896.660000	0.979881	0.021361
5896.670000	0.994094	0.021359
5896.680000	1.017931	0.022656
5896.690000	1.006945	0.022885
5896.700000	1.006568	0.023083
5896.710000	0.994852	0.022164
5896.720000	0.972468	0.020920
5896.730000	0.951689	0.020541
5896.740000	0.960109	0.021058
5896.750000	0.991254	0.022105
5896.760000	0.995423	0.021870
5896.770000	1.002010	0.021721
5896.780000	0.999075	0.021634
5896.790000	0.979276	0.021023
5896.800000	0.978885	0.021150
5896.810000	0.965435	0.020895
5896.820000	0.945683	0.019941
5896.830000	0.990044	0.020901
5896.840000	1.027693	0.021836
5896.850000	0.993250	0.020695
5896.860000	0.979195	0.020403
5896.870000	1.001998	0.020657
5896.880000	0.998519	0.019694
5896.890000	1.003236	0.019835
5896.900000	0.995307	0.019641
5896.910000	0.963757	0.018150
5896.920000	0.978513	0.017972
5896.930000	1.000199	0.018370
5896.940000	0.997132	0.018122
5896.950000	1.001973	0.017805
5896.960000	1.000364	0.017363
5896.970000	1.016763	0.017809
5896.980000	1.031563	0.018127
5896.990000	1.000647	0.016987
5897.000000	0.999486	0.016625
5897.010000	1.019822	0.017691
5897.020000	0.999795	0.017543
5897.030000	0.980701	0.016203
5897.040000	0.997820	0.016275
5897.050000	1.011578	0.016702
5897.060000	1.001901	0.016100
5897.070000	0.990017	0.014797
5897.080000	0.986870	0.014455
5897.090000	1.006933	0.014767
5897.100000	1.021478	0.014458
5897.110000	1.003836	0.013449
5897.120000	0.987872	0.012719
5897.130000	0.996558	0.012494
5897.140000	1.016725	0.012519
5897.150000	1.019157	0.012157
5897.160000	1.005319	0.011528
5897.170000	0.992651	0.011140
5897.180000	0.984008	0.010943
5897.190000	0.993062	0.010881
5897.200000	1.001274	0.010826
5897.210000	0.996166	0.010706
5897.220000	0.997532	0.010628
5897.230000	0.987036	0.010474
5897.240000	0.988279	0.010431
5897.250000	1.009687	0.010532
5897.260000	1.010188	0.010467
5897.270000	1.000858	0.010351
5897.280000	0.997674	0.010295
5897.290000	1.004683	0.010291
5897.300000	1.011271	0.010271
5897.310000	1.009375	0.010213
5897.320000	1.007966	0.010170
5897.330000	1.006554	0.010109
5897.340000	1.007776	0.010087
5897.350000	1.009187	0.010095
5897.360000	0.998641	0.010007
5897.370000	0.980628	0.009847
5897.380000	0.980300	0.009791
5897.390000	0.994132	0.009858
5897.400000	1.004090	0.009923
5897.410000	1.009396	0.009944
5897.420000	0.993851	0.009795
5897.430000	0.984421	0.009696
5897.440000	0.996404	0.009762
5897.450000	1.013064	0.009851
5897.460000	1.022741	0.009882
5897.470000	1.003400	0.009736
5897.480000	0.986558	0.009597
5897.490000	0.998376	0.009655
5897.500000	1.005359	0.009717
5897.510000	1.005173	0.009690
5897.520000	1.003020	0.009640
5897.530000	1.005167	0.009646
5897.540000	1.016266	0.009690
5897.550000	1.013260	0.009674
5897.560000	1.001765	0.009605
5897.570000	0.998850	0.009551
5897.580000	0.995349	0.009537
5897.590000	0.997569	0.009562
5897.600000	1.000429	0.009547
5897.610000	0.992047	0.009481
5897.620000	0.997112	0.009505
5897.630000	1.007963	0.009559
5897.640000	1.005054	0.009536
5897.650000	0.998549	0.009475
5897.660000	0.992973	0.009424
5897.670000	0.992831	0.009437
5897.680000	0.999480	0.009491
5897.690000	0.995744	0.009471
5897.700000	0.984387	0.009403
5897.710000	0.990222	0.009416
5897.720000	1.007538	0.009507
5897.730000	0.999985	0.009514
5897.740000	0.985773	0.009437
5897.750000	1.003387	0.009502
5897.760000	1.016824	0.009568
5897.770000	1.009850	0.009521
5897.780000	1.003718	0.009488
5897.790000	1.008515	0.009537
5897.800000	1.012364	0.009574
5897.810000	1.000047	0.009481
5897.820000	0.988673	0.009399
5897.830000	0.996620	0.009470
5897.840000	1.007732	0.009557
5897.850000	1.004567	0.009511
5897.860000	1.003327	0.009476
5897.870000	1.007028	0.009521
5897.880000	1.002565	0.009517
5897.890000	1.001125	0.009497
5897.900000	1.008380	0.009520
5897.910000	1.011498	0.009529
5897.920000	1.006293	0.009516
5897.930000	1.001081	0.009523
5897.940000	1.003043	0.009528
5897.950000	0.997248	0.009469
5897.960000	0.992475	0.009449
5897.970000	1.007175	0.009550
5897.980000	1.003756	0.009550
5897.990000	0.982959	0.009418
5898.000000	0.995154	0.009460
5898.010000	1.005156	0.009525
5898.020000	0.998966	0.009520
5898.030000	1.008898	0.009603
5898.040000	1.011666	0.009601
5898.050000	1.008857	0.009554
5898.060000	1.010463	0.009567
5898.070000	1.012986	0.009594
5898.080000	1.012189	0.009588
5898.090000	1.004565	0.009535
5898.100000	1.007918	0.009560
5898.110000	1.004987	0.009536
5898.120000	0.996299	0.009464
5898.130000	1.000342	0.009491
5898.140000	1.003733	0.009502
5898.150000	1.003627	0.009483
5898.160000	0.998948	0.009451
5898.170000	0.996410	0.009443
5898.180000	1.001309	0.009459
5898.190000	1.002049	0.009460
5898.200000	1.000808	0.009457
5898.210000	1.008868	0.009469
5898.220000	1.015384	0.009491
5898.230000	1.007077	0.009449
5898.240000	0.987619	0.009327
5898.250000	0.995893	0.009367
5898.260000	1.007831	0.009429
5898.270000	0.995007	0.009358
5898.280000	0.998980	0.009390
5898.290000	1.006663	0.009430
5898.300000	1.001229	0.009379
5898.310000	0.999772	0.009349
5898.320000	1.003159	0.009374
5898.330000	0.998566	0.009354
5898.340000	0.990908	0.009304
5898.350000	0.999670	0.009348
5898.360000	0.995549	0.009294
5898.370000	0.986348	0.009223
5898.380000	0.998320	0.009310
5898.390000	1.005091	0.009353
5898.400000	1.005141	0.009338
5898.410000	1.006439	0.009327
5898.420000	1.003944	0.009292
5898.430000	1.003685	0.009292
5898.440000	1.012683	0.009351
5898.450000	1.012605	0.009346
5898.460000	0.995708	0.009240
5898.470000	0.987825	0.009192
5898.480000	0.991326	0.009203
5898.490000	0.988199	0.009185
5898.500000	0.986684	0.009184
5898.510000	0.987410	0.009183
5898.520000	0.987951	0.009176
5898.530000	0.985824	0.009152
5898.540000	0.997610	0.009216
5898.550000	1.014857	0.009324
5898.560000	0.999537	0.009245
5898.570000	0.985822	0.009146
5898.580000	1.002353	0.009234
5898.590000	1.009966	0.009274
5898.600000	1.003092	0.009218
5898.610000	1.003534	0.009226
5898.620000	0.999205	0.009214
5898.630000	0.995418	0.009188
5898.640000	1.003253	0.009231
5898.650000	0.999592	0.009218
5898.660000	0.992839	0.009170
5898.670000	1.003106	0.009212
5898.680000	1.002966	0.009221
5898.690000	1.000146	0.009221
5898.700000	1.005158	0.009249
5898.710000	1.001716	0.009246
5898.720000	0.998778	0.009272
5898.730000	1.008031	0.009323
5898.740000	1.015064	0.009337
5898.750000	0.999863	0.009272
5898.760000	0.987386	0.009226
5898.770000	0.993080	0.009271
5898.780000	0.998379	0.009302
5898.790000	1.002779	0.009314
5898.800000	1.001054	0.009312
5898.810000	0.995511	0.009270
5898.820000	1.001082	0.009298
5898.830000	1.007056	0.009359
5898.840000	0.998136	0.009292
5898.850000	0.997373	0.009263
5898.860000	1.003697	0.009314
5898.870000	1.010554	0.009371
5898.880000	1.009596	0.009380
5898.890000	0.994894	0.009305
5898.900000	0.997967	0.009299
5898.910000	1.006806	0.009333
5898.920000	1.002809	0.009331
5898.930000	1.001501	0.009333
5898.940000	1.004610	0.009325
5898.950000	0.998650	0.009286
5898.960000	0.990699	0.009261
5898.970000	0.995449	0.009292
5898.980000	0.999426	0.009326
5898.990000	0.993880	0.009280
5899.000000	0.990407	0.009228
5899.010000	0.992000	0.009240
5899.020000	0.997981	0.009292
5899.030000	1.005148	0.009317
5899.040000	1.006442	0.009308
5899.050000	1.002292	0.009305
5899.060000	0.998035	0.009288
5899.070000	0.997781	0.009269
5899.080000	1.000987	0.009281
5899.090000	1.005667	0.009297
5899.100000	0.996556	0.009243
5899.110000	0.984809	0.009183
5899.120000	0.992164	0.009225
5899.130000	1.004499	0.009281
5899.140000	1.003501	0.009254
5899.150000	0.992219	0.009178
5899.160000	0.986843	0.009144
5899.170000	0.993872	0.009191
5899.180000	0.999632	0.009238
5899.190000	1.001302	0.009240
5899.200000	1.006411	0.009251
5899.210000	1.011909	0.009275
5899.220000	1.002418	0.009220
5899.230000	0.993720	0.009169
5899.240000	0.995079	0.009162
5899.250000	0.988626	0.009112
5899.260000	0.990709	0.009136
5899.270000	0.996971	0.009172
5899.280000	0.996377	0.009159
5899.290000	1.005646	0.009219
5899.300000	1.012882	0.009274
5899.310000	1.004985	0.009211
5899.320000	0.995681	0.009135
5899.330000	0.993500	0.009125
5899.340000	0.988875	0.009116
5899.350000	0.985060	0.009094
5899.360000	0.991622	0.009111
5899.370000	0.992328	0.009106
5899.380000	0.993979	0.009113
5899.390000	0.997008	0.009138
5899.400000	0.993025	0.009113
5899.410000	0.992388	0.009094
5899.420000	0.999891	0.009146
5899.430000	0.999700	0.009161
5899.440000	0.994330	0.009120
5899.450000	0.988335	0.009072
5899.460000	0.995071	0.009096
5899.470000	1.012095	0.009184
5899.480000	1.005466	0.009148
5899.490000	0.995010	0.009103
5899.500000	0.998109	0.009141
5899.510000	0.999914	0.009151
5899.520000	1.004033	0.009160
5899.530000	1.005703	0.009151
5899.540000	0.998043	0.009099
5899.550000	0.989532	0.009085
5899.560000	0.991471	0.009130
5899.570000	1.001564	0.009174
5899.580000	1.007519	0.009194
5899.590000	1.004282	0.009178
5899.600000	1.002961	0.009179
5899.610000	1.003095	0.009193
5899.620000	0.999717	0.009175
5899.630000	1.004566	0.009196
5899.640000	1.000879	0.009176
5899.650000	0.984701	0.009091
5899.660000	0.983482	0.009088
5899.670000	0.996571	0.009164
5899.680000	0.995831	0.009168
5899.690000	0.981971	0.009088
5899.700000	0.988527	0.009134
5899.710000	1.017121	0.009323
5899.720000	1.021845	0.009367
5899.730000	1.006149	0.009273
5899.740000	1.006994	0.009293
5899.750000	1.002152	0.009349
5899.760000	0.996452	0.009366
5899.770000	0.999798	0.009402
5899.780000	0.995778	0.009429
5899.790000	1.001785	0.009542
5899.800000	1.008499	0.009666
5899.810000	1.000183	0.009664
5899.820000	0.995596	0.009686
5899.830000	1.010713	0.009830
5899.840000	1.017923	0.009911
5899.850000	1.001672	0.009841
5899.860000	1.008576	0.009923
5899.870000	1.018324	0.009999
5899.880000	1.000852	0.009868
5899.890000	1.007104	0.009931
5899.900000	1.028241	0.010104
5899.910000	1.017472	0.010006
5899.920000	1.003187	0.009885
5899.930000	1.005320	0.009911
5899.940000	1.009181	0.009952
5899.950000	1.013649	0.010000
5899.960000	1.011534	0.010007
5899.970000	1.002631	0.009970
5899.980000	1.003778	0.009985
5899.990000	1.010607	0.010010
5900.000000	1.010153	0.010022
5900.010000	1.008926	0.010074
5900.020000	1.004956	0.010050
5900.030000	1.000896	0.010025
5900.040000	1.013390	0.010144
5900.050000	1.013376	0.010128
5900.060000	1.008586	0.010098
5900.070000	1.008953	0.010132
5900.080000	0.998924	0.010027
5900.090000	0.998542	0.009965
5900.100000	0.999163	0.009980
5900.110000	0.999019	0.010012
5900.120000	1.011200	0.010091
5900.130000	1.012855	0.010075
5900.140000	1.000114	0.009968
5900.150000	0.990576	0.009902
5900.160000	0.995465	0.009936
5900.170000	1.004078	0.009983
5900.180000	1.004248	0.009961
5900.190000	1.004030	0.009943
5900.200000	1.010361	0.009976
5900.210000	1.007763	0.009980
5900.220000	1.001502	0.009927
5900.230000	0.999796	0.009875
5900.240000	1.008212	0.009909
5900.250000	1.012501	0.009914
5900.260000	1.000476	0.009812
5900.270000	0.996474	0.009780
5900.280000	1.003111	0.009799
5900.290000	1.001887	0.009743
5900.300000	0.998731	0.009708
5900.310000	1.001295	0.009725
5900.320000	1.001535	0.009701
5900.330000	0.996873	0.009645
5900.340000	0.990941	0.009603
5900.350000	0.993492	0.009621
5900.360000	1.004961	0.009710
5900.370000	1.006481	0.009723
5900.380000	1.007642	0.009709
5900.390000	1.003368	0.009664
5900.400000	0.992643	0.009602
5900.410000	0.997151	0.009618
5900.420000	0.997318	0.009578
5900.430000	0.998071	0.009544
5900.440000	0.997939	0.009535
5900.450000	0.987901	0.009460
5900.460000	0.992714	0.009432
5900.470000	1.005832	0.009440
5900.480000	1.001080	0.009387
5900.490000	0.992700	0.009312
5900.500000	0.991916	0.009289
5900.510000	0.992486	0.009278
5900.520000	0.996365	0.009247
5900.530000	1.001655	0.009265
5900.540000	0.998403	0.009254
5900.550000	0.994335	0.009211
5900.560000	0.998228	0.009229
5900.570000	1.006505	0.009284
5900.580000	1.010304	0.009285
5900.590000	0.997996	0.009181
5900.600000	0.989309	0.009139
5900.610000	1.005225	0.009241
5900.620000	1.008482	0.009242
5900.630000	0.993232	0.009142
5900.640000	0.989875	0.009133
5900.650000	0.994302	0.009159
5900.660000	0.989530	0.009114
5900.670000	0.991197	0.009115
5900.680000	1.001268	0.009175
5900.690000	0.995614	0.009143
5900.700000	0.989692	0.009116
5900.710000	1.005083	0.009181
5900.720000	1.014320	0.009197
5900.730000	1.003561	0.009139
5900.740000	1.001441	0.009117
5900.750000	1.008537	0.009152
5900.760000	1.005024	0.009159
5900.770000	0.995107	0.009115
5900.780000	0.994629	0.009118
5900.790000	0.997664	0.009120
5900.800000	1.000183	0.009119
5900.810000	1.000102	0.009140
5900.820000	0.997544	0.009125
5900.830000	1.004841	0.009151
5900.840000	1.012588	0.009178
5900.850000	1.006936	0.009144
5900.860000	0.990282	0.009066
5900.870000	0.991448	0.009077
5900.880000	0.996701	0.009104
5900.890000	0.988721	0.009046
5900.900000	0.994986	0.009083
5900.910000	1.013327	0.009193
5900.920000	1.016940	0.009201
5900.930000	1.006866	0.009145
5900.940000	1.000081	0.009102
5900.950000	1.001784	0.009102
5900.960000	1.002607	0.009135
5900.970000	1.008486	0.009174
5900.980000	1.008422	0.009161
5900.990000	1.002732	0.009126
5901.000000	1.005096	0.009133
5901.010000	1.006296	0.009162
5901.020000	0.999920	0.009163
5901.030000	0.995924	0.009132
5901.040000	0.994621	0.009095
5901.050000	0.991779	0.009088
5901.060000	1.002272	0.009172
5901.070000	1.004895	0.009196
5901.080000	0.991763	0.009119
5901.090000	0.985838	0.009083
5901.100000	0.994222	0.009136
5901.110000	1.007296	0.009215
5901.120000	1.011997	0.009240
5901.130000	1.002964	0.009182
5901.140000	0.999164	0.009154
5901.150000	1.004905	0.009199
5901.160000	1.004295	0.009194
5901.170000	0.998260	0.009142
5901.180000	0.994840	0.009136
5901.190000	0.998651	0.009159
5901.200000	1.006960	0.009192
5901.210000	1.000092	0.009167
5901.220000	0.995122	0.009169
5901.230000	1.005766	0.009225
5901.240000	1.007352	0.009217
5901.250000	1.010567	0.009282
5901.260000	1.012383	0.009354
5901.270000	0.998648	0.009251
5901.280000	0.996384	0.009199
5901.290000	1.014631	0.009331
5901.300000	1.028621	0.009436
5901.310000	1.005068	0.009303
5901.320000	0.985033	0.009195
5901.330000	0.997655	0.009256
5901.340000	1.005015	0.009297
5901.350000	1.008701	0.009347
5901.360000	1.011928	0.009355
5901.370000	1.007146	0.009319
5901.380000	0.999964	0.009269
5901.390000	0.995056	0.009232
5901.400000	1.001041	0.009292
5901.410000	1.007860	0.009344
5901.420000	0.997342	0.009261
5901.430000	1.000732	0.009258
5901.440000	1.013300	0.009324
5901.450000	1.003408	0.009266
5901.460000	0.996493	0.009218
5901.470000	1.005514	0.009255
5901.480000	1.010533	0.009293
5901.490000	1.002707	0.009248
5901.500000	0.995219	0.009208
5901.510000	1.002535	0.009251
5901.520000	1.006908	0.009275
5901.530000	1.004485	0.009266
5901.540000	1.012767	0.009292
5901.550000	1.014554	0.009292
5901.560000	1.013258	0.009282
5901.570000	1.016973	0.009275
5901.580000	1.012512	0.009242
5901.590000	1.002058	0.009191
5901.600000	1.005091	0.009208
5901.610000	1.004780	0.009208
5901.620000	1.000378	0.009193
5901.630000	1.006478	0.009226
5901.640000	1.006879	0.009220
5901.650000	1.004194	0.009203
5901.660000	1.000819	0.009173
5901.670000	1.002860	0.009176
5901.680000	1.007022	0.009205
5901.690000	1.000657	0.009170
5901.700000	0.998087	0.009146
5901.710000	1.011286	0.009208
5901.720000	1.004193	0.009164
5901.730000	0.991392	0.009104
5901.740000	0.993808	0.009126
5901.750000	1.005468	0.009195
5901.760000	1.004874	0.009186
5901.770000	0.994499	0.009116
5901.780000	0.993303	0.009115
5901.790000	1.001093	0.009155
5901.800000	1.002828	0.009166
5901.810000	0.997404	0.009143
5901.820000	0.997676	0.009141
5901.830000	1.000392	0.009161
5901.840000	0.996838	0.009143
5901.850000	0.995285	0.009140
5901.860000	1.009276	0.009211
5901.870000	1.010390	0.009213
5901.880000	0.998842	0.009154
5901.890000	1.004002	0.009168
5901.900000	1.007904	0.009192
5901.910000	1.001849	0.009170
5901.920000	1.003309	0.009169
5901.930000	1.008599	0.009191
5901.940000	0.998915	0.009143
5901.950000	0.984048	0.009066
5901.960000	0.990768	0.009087
5901.970000	0.993370	0.009090
5901.980000	0.996973	0.009135
5901.990000	1.013644	0.009224
5902.000000	1.011170	0.009206
5902.010000	0.996005	0.009131
5902.020000	1.003983	0.009189
5902.030000	1.013293	0.009264
5902.040000	1.009798	0.009243
5902.050000	1.002995	0.009189
5902.060000	0.993482	0.009140
5902.070000	0.995243	0.009164
5902.080000	1.001570	0.009218
5902.090000	1.001851	0.009221
5902.100000	0.996127	0.009149
5902.110000	1.000351	0.009186
5902.120000	1.006200	0.009246
5902.130000	0.991839	0.009136
5902.140000	0.985071	0.009080
5902.150000	0.995123	0.009153
5902.160000	0.993217	0.009156
5902.170000	0.996543	0.009164
5902.180000	1.004628	0.009188
5902.190000	1.000843	0.009165
5902.200000	0.998320	0.009161
5902.210000	1.004555	0.009186
5902.220000	1.006497	0.009203
5902.230000	1.002159	0.009189
5902.240000	0.996894	0.009161
5902.250000	0.991006	0.009135
5902.260000	0.993344	0.009151
5902.270000	1.001758	0.009193
5902.280000	1.005009	0.009201
5902.290000	0.998193	0.009144
5902.300000	0.999296	0.009154
5902.310000	1.001138	0.009189
5902.320000	1.007334	0.009226
5902.330000	1.016753	0.009279
5902.340000	1.013562	0.009251
5902.350000	1.001887	0.009175
5902.360000	0.999978	0.009181
5902.370000	1.002061	0.009193
5902.380000	0.996246	0.009137
5902.390000	1.004657	0.009180
5902.400000	1.013676	0.009234
5902.410000	0.996061	0.009113
5902.420000	0.987307	0.009053
5902.430000	1.004926	0.009180
5902.440000	1.016903	0.009258
5902.450000	1.004090	0.009175
5902.460000	0.999317	0.009143
5902.470000	1.001748	0.009161
5902.480000	0.988679	0.009091
5902.490000	0.993414	0.009111
5902.500000	1.015950	0.009219
5902.510000	1.011001	0.009186
5902.520000	0.993604	0.009096
5902.530000	0.998971	0.009126
5902.540000	1.012099	0.009186
5902.550000	1.008671	0.009173
5902.560000	0.990594	0.009096
5902.570000	0.993662	0.009093
5902.580000	1.010295	0.009164
5902.590000	1.002820	0.009138
5902.600000	0.992851	0.009095
5902.610000	0.997865	0.009101
5902.620000	0.998492	0.009086
5902.630000	0.989864	0.009039
5902.640000	0.989233	0.009052
5902.650000	1.000218	0.009134
5902.660000	1.001111	0.009112
5902.670000	1.006014	0.009100
5902.680000	1.011633	0.009138
5902.690000	0.993016	0.009063
5902.700000	0.987838	0.009039
5902.710000	0.999811	0.009078
5902.720000	1.005104	0.009104
5902.730000	0.995282	0.009054
5902.740000	0.989844	0.009017
5902.750000	0.998442	0.009066
5902.760000	0.996624	0.009047
5902.770000	0.995620	0.009044
5902.780000	1.006385	0.009100
5902.790000	1.002235	0.009078
5902.800000	0.995275	0.009058
5902.810000	0.995380	0.009066
5902.820000	0.989005	0.009017
5902.830000	0.988658	0.009018
5902.840000	0.998101	0.009075
5902.850000	1.009939	0.009131
5902.860000	1.006309	0.009113
5902.870000	0.995651	0.009046
5902.880000	0.998848	0.009055
5902.890000	0.996492	0.009061
5902.900000	0.992911	0.009059
5902.910000	0.991855	0.009060
5902.920000	0.983939	0.009011
5902.930000	0.990620	0.009026
5902.940000	1.007962	0.009139
5902.950000	1.002022	0.009146
5902.960000	0.987670	0.009080
5902.970000	0.993373	0.009093
5902.980000	1.002130	0.009149
5902.990000	1.003795	0.009211
5903.000000	1.008970	0.009234
5903.010000	1.002039	0.009166
5903.020000	0.991550	0.009132
5903.030000	0.989515	0.009147
5903.040000	0.986926	0.009140
5903.050000	1.004520	0.009235
5903.060000	1.012375	0.009261
5903.070000	0.998926	0.009179
5903.080000	0.993060	0.009164
5903.090000	0.991803	0.009191
5903.100000	1.003815	0.009253
5903.110000	0.997612	0.009181
5903.120000	0.979330	0.009081
5903.130000	0.999326	0.009219
5903.140000	1.006988	0.009270
5903.150000	0.994581	0.009171
5903.160000	0.992743	0.009137
5903.170000	0.994277	0.009162
5903.180000	1.000397	0.009204
5903.190000	1.006340	0.009252
5903.200000	0.995251	0.009205
5903.210000	0.994005	0.009169
5903.220000	0.997830	0.009178
5903.230000	0.994852	0.009181
5903.240000	0.999714	0.009230
5903.250000	1.002498	0.009247
5903.260000	1.007142	0.009247
5903.270000	1.011048	0.009251
5903.280000	1.003083	0.009236
5903.290000	0.995473	0.009222
5903.300000	0.999512	0.009240
5903.310000	1.004729	0.009250
5903.320000	0.996996	0.009178
5903.330000	0.993934	0.009162
5903.340000	1.002619	0.009229
5903.350000	0.997590	0.009211
5903.360000	0.997614	0.009218
5903.370000	0.999948	0.009220
5903.380000	0.996472	0.009203
5903.390000	1.001950	0.009235
5903.400000	1.004656	0.009242
5903.410000	1.000613	0.009208
5903.420000	0.995632	0.009158
5903.430000	1.004823	0.009197
5903.440000	1.015363	0.009270
5903.450000	1.010372	0.009241
5903.460000	0.994910	0.009140
5903.470000	0.995454	0.009144
5903.480000	1.005066	0.009209
5903.490000	0.998864	0.009181
5903.500000	1.000822	0.009179
5903.510000	1.000026	0.009158
5903.520000	0.993027	0.009113
5903.530000	1.000192	0.009154
5903.540000	1.010251	0.009232
5903.550000	1.007463	0.009211
5903.560000	0.983344	0.009071
5903.570000	0.980424	0.009076
5903.580000	1.002657	0.009185
5903.590000	1.006855	0.009192
5903.600000	0.998194	0.009149
5903.610000	0.993073	0.009103
5903.620000	0.991775	0.009079
5903.630000	0.996546	0.009115
5903.640000	0.999448	0.009123
5903.650000	1.005383	0.009128
5903.660000	1.011238	0.009162
5903.670000	0.989179	0.009050
5903.680000	0.980973	0.009000
5903.690000	1.002393	0.009106
5903.700000	1.001090	0.009105
5903.710000	0.989281	0.009052
5903.720000	0.992669	0.009055
5903.730000	1.001791	0.009109
5903.740000	1.013276	0.009188
5903.750000	1.015158	0.009168
5903.760000	1.009946	0.009125
5903.770000	1.011494	0.009167
5903.780000	1.002998	0.009144
5903.790000	0.997563	0.009111
5903.800000	1.002806	0.009146
5903.810000	1.003101	0.009151
5903.820000	1.001634	0.009134
5903.830000	1.003684	0.009151
5903.840000	1.004900	0.009182
5903.850000	0.997373	0.009147
5903.860000	0.991599	0.009111
5903.870000	0.995336	0.009136
5903.880000	0.993765	0.009121
5903.890000	0.985784	0.009074
5903.900000	0.989928	0.009098
5903.910000	1.005359	0.009185
5903.920000	1.005269	0.009198
5903.930000	0.988531	0.009102
5903.940000	0.996556	0.009155
5903.950000	1.005903	0.009219
5903.960000	1.002615	0.009181
5903.970000	1.000855	0.009160
5903.980000	0.995779	0.009136
5903.990000	1.002927	0.009176
5904.000000	1.007326	0.009192
5904.010000	1.004813	0.009163
5904.020000	1.004656	0.009161
5904.030000	1.003723	0.009169
5904.040000	0.996912	0.009125
5904.050000	0.991807	0.009101
5904.060000	0.998675	0.009146
5904.070000	1.000637	0.009150
5904.080000	0.997545	0.009138
5904.090000	1.004478	0.009179
5904.100000	1.012894	0.009199
5904.110000	1.008671	0.009174
5904.120000	0.996835	0.009134
5904.130000	0.990304	0.009099
5904.140000	0.996001	0.009129
5904.150000	1.002142	0.009155
5904.160000	1.002670	0.009138
5904.170000	0.994455	0.009098
5904.180000	0.989018	0.009072
5904.190000	0.997439	0.009131
5904.200000	1.003490	0.009172
5904.210000	1.005939	0.009149
5904.220000	1.005867	0.009133
5904.230000	0.992108	0.009088
5904.240000	0.990887	0.009111
5904.250000	1.006018	0.009180
5904.260000	1.004217	0.009132
5904.270000	0.998199	0.009099
5904.280000	1.010543	0.009179
5904.290000	1.006176	0.009160
5904.300000	0.989248	0.009066
5904.310000	1.000520	0.009103
5904.320000	1.011354	0.009155
5904.330000	1.007241	0.009137
5904.340000	0.995556	0.009071
5904.350000	0.999775	0.009099
5904.360000	1.009537	0.009145
5904.370000	0.995080	0.009047
5904.380000	1.003927	0.009101
5904.390000	1.026022	0.009233
5904.400000	1.010189	0.009151
5904.410000	0.996540	0.009077
5904.420000	1.004031	0.009113
5904.430000	1.002754	0.009099
5904.440000	0.998070	0.009067
5904.450000	0.998045	0.009066
5904.460000	0.994901	0.009061
5904.470000	0.998266	0.009078
5904.480000	1.009617	0.009141
5904.490000	1.003528	0.009101
5904.500000	0.992306	0.009024
5904.510000	0.999010	0.009060
5904.520000	0.998432	0.009066
5904.530000	0.991321	0.009041
5904.540000	0.981992	0.008978
5904.550000	0.990367	0.009008
5904.560000	1.005044	0.009081
5904.570000	1.000206	0.009048
5904.580000	1.003338	0.009072
5904.590000	1.000016	0.009050
5904.600000	0.984263	0.008956
5904.610000	0.987522	0.008999
5904.620000	0.998324	0.009074
5904.630000	1.000944	0.009075
5904.640000	0.999237	0.009070
5904.650000	1.002622	0.009096
5904.660000	1.006240	0.009109
5904.670000	0.997085	0.009036
5904.680000	1.003146	0.009072
5904.690000	1.011596	0.009145
5904.700000	0.997159	0.009055
5904.710000	0.979879	0.008961
5904.720000	0.985741	0.009000
5904.730000	1.007089	0.009105
5904.740000	1.011376	0.009133
5904.750000	1.001119	0.009082
5904.760000	1.006809	0.009127
5904.770000	1.018069	0.009193
5904.780000	1.011641	0.009156
5904.790000	0.997124	0.009065
5904.800000	0.996525	0.009058
5904.810000	0.996983	0.009074
5904.820000	1.000415	0.009095
5904.830000	1.010249	0.009144
5904.840000	1.005913	0.009094
5904.850000	0.997775	0.009047
5904.860000	0.995656	0.009072
5904.870000	1.004599	0.009112
5904.880000	1.017665	0.009180
5904.890000	1.006344	0.009119
5904.900000	0.987755	0.009003
5904.910000	0.981839	0.008991
5904.920000	0.998760	0.009103
5904.930000	1.009178	0.009152
5904.940000	0.992776	0.009046
5904.950000	1.001684	0.009113
5904.960000	1.017847	0.009209
5904.970000	0.995911	0.009091
5904.980000	0.986217	0.009032
5904.990000	1.007261	0.009133
5905.000000	1.003803	0.009103
5905.010000	0.995667	0.009068
5905.020000	0.996958	0.009087
5905.030000	0.991385	0.009041
5905.040000	0.995535	0.009062
5905.050000	1.000551	0.009083
5905.060000	1.002281	0.009093
5905.070000	1.004653	0.009144
5905.080000	0.996674	0.009105
5905.090000	0.996277	0.009079
5905.100000	1.007304	0.009126
5905.110000	0.997350	0.009073
5905.120000	0.987050	0.009020
5905.130000	1.000022	0.009100
5905.140000	0.997413	0.009092
5905.150000	0.981951	0.009007
5905.160000	0.994073	0.009079
5905.170000	1.012261	0.009174
5905.180000	1.003657	0.009111
5905.190000	0.994254	0.009055
5905.200000	0.990735	0.009059
5905.210000	0.999546	0.009106
5905.220000	1.004247	0.009120
5905.230000	0.986045	0.009025
5905.240000	0.981713	0.008991
5905.250000	0.989644	0.009046
5905.260000	0.993222	0.009075
5905.270000	0.992988	0.009063
5905.280000	0.992463	0.009055
5905.290000	1.001235	0.009098
5905.300000	1.002513	0.009110
5905.310000	0.996520	0.009067
5905.320000	0.998378	0.009087
5905.330000	1.002036	0.009125
5905.340000	1.014243	0.009189
5905.350000	1.010767	0.009176
5905.360000	0.990272	0.009058
5905.370000	0.999569	0.009090
5905.380000	1.006093	0.009122
5905.390000	0.986386	0.009020
5905.400000	0.990212	0.009042
5905.410000	1.013313	0.009178
5905.420000	1.004365	0.009146
5905.430000	0.990332	0.009070
5905.440000	1.001294	0.009128
5905.450000	1.001514	0.009135
5905.460000	0.981362	0.009013
5905.470000	0.977785	0.008997
5905.480000	0.995999	0.009095
5905.490000	1.005958	0.009129
5905.500000	1.006401	0.009141
5905.510000	1.001662	0.009137
5905.520000	0.992280	0.009084
5905.530000	0.994241	0.009085
5905.540000	0.993162	0.009073
5905.550000	0.982994	0.009017
5905.560000	0.988956	0.009069
5905.570000	1.000930	0.009141
5905.580000	1.002177	0.009128
5905.590000	0.996233	0.009072
5905.600000	1.000161	0.009080
5905.610000	1.002506	0.009128
5905.620000	1.001720	0.009152
5905.630000	0.998031	0.009129
5905.640000	0.988555	0.009045
5905.650000	1.004137	0.009115
5905.660000	1.012142	0.009177
5905.670000	1.000374	0.009111
5905.680000	0.996041	0.009068
5905.690000	0.995475	0.009063
5905.700000	0.995136	0.009079
5905.710000	0.999695	0.009107
5905.720000	1.008832	0.009145
5905.730000	0.999436	0.009088
5905.740000	0.989808	0.009041
5905.750000	1.004056	0.009127
5905.760000	0.995482	0.009086
5905.770000	0.978774	0.008975
5905.780000	0.993210	0.009018
5905.790000	1.006877	0.009102
5905.800000	0.989564	0.009046
5905.810000	0.984975	0.009015
5905.820000	1.001348	0.009080
5905.830000	1.006922	0.009087
5905.840000	0.999077	0.009056
5905.850000	0.994189	0.009064
5905.860000	0.995526	0.009078
5905.870000	0.996575	0.009075
5905.880000	1.005589	0.009103
5905.890000	1.009117	0.009122
5905.900000	1.000251	0.009087
5905.910000	1.001269	0.009096
5905.920000	1.009405	0.009130
5905.930000	1.005575	0.009100
5905.940000	1.007486	0.009103
5905.950000	1.008491	0.009105
5905.960000	0.985977	0.009010
5905.970000	0.968530	0.008911
5905.980000	0.973908	0.008926
5905.990000	0.995706	0.009063
5906.000000	1.008155	0.009121
5906.010000	0.996670	0.009066
5906.020000	0.983161	0.009007
5906.030000	0.992452	0.009039
5906.040000	1.000326	0.009086
5906.050000	0.993379	0.009051
5906.060000	1.005222	0.009095
5906.070000	1.004148	0.009088
5906.080000	0.996675	0.009081
5906.090000	0.995017	0.009082
5906.100000	0.991299	0.009074
5906.110000	0.997239	0.009134
5906.120000	1.005400	0.009197
5906.130000	0.996887	0.009189
5906.140000	0.989358	0.009200
5906.150000	1.006675	0.009337
5906.160000	1.019199	0.009489
5906.170000	1.009380	0.009521
5906.180000	1.002866	0.009515
5906.190000	0.999655	0.009531
5906.200000	0.993911	0.009531
5906.210000	0.997359	0.009596
5906.220000	1.010311	0.009732
5906.230000	1.012200	0.009790
5906.240000	0.999369	0.009707
5906.250000	0.995028	0.009707
5906.260000	0.996975	0.009732
5906.270000	0.996608	0.009687
5906.280000	0.994344	0.009693
5906.290000	0.992219	0.009679
5906.300000	0.995088	0.009694
5906.310000	0.994212	0.009715
5906.320000	0.978089	0.009611
5906.330000	0.988096	0.009698
5906.340000	1.012892	0.009830
5906.350000	1.013676	0.009829
5906.360000	1.003659	0.009815
5906.370000	1.011163	0.009842
5906.380000	0.998020	0.009780
5906.390000	0.977234	0.009680
5906.400000	0.990622	0.009714
5906.410000	1.009181	0.009831
5906.420000	1.015858	0.009922
5906.430000	1.017581	0.009946
5906.440000	1.007062	0.009824
5906.450000	0.994918	0.009741
5906.460000	1.003580	0.009811
5906.470000	1.017878	0.009861
5906.480000	0.995155	0.009744
5906.490000	0.976574	0.009621
5906.500000	0.996789	0.009707
5906.510000	1.005686	0.009753
5906.520000	0.989166	0.009660
5906.530000	0.993997	0.009689
5906.540000	1.014343	0.009771
5906.550000	1.004066	0.009697
5906.560000	0.987119	0.009604
5906.570000	0.988423	0.009612
5906.580000	0.983535	0.009591
5906.590000	0.984119	0.009561
5906.600000	0.983116	0.009528
5906.610000	0.982457	0.009508
5906.620000	0.990558	0.009559
5906.630000	0.987952	0.009517
5906.640000	0.999415	0.009525
5906.650000	0.997369	0.009477
5906.660000	0.991314	0.009403
5906.670000	1.009617	0.009506
5906.680000	1.010440	0.009497
5906.690000	0.991645	0.009362
5906.700000	0.980329	0.009295
5906.710000	0.993119	0.009372
5906.720000	1.003356	0.009429
5906.730000	1.002715	0.009416
5906.740000	1.003075	0.009402
5906.750000	1.006007	0.009404
5906.760000	1.005292	0.009427
5906.770000	0.991394	0.009352
5906.780000	0.991443	0.009314
5906.790000	0.994663	0.009317
5906.800000	0.989812	0.009274
5906.810000	1.007008	0.009352
5906.820000	1.003963	0.009305
5906.830000	0.990917	0.009177
5906.840000	1.003760	0.009214
5906.850000	1.000287	0.009178
5906.860000	0.982493	0.009047
5906.870000	0.997145	0.009096
5906.880000	1.009564	0.009159
5906.890000	1.007253	0.009149
5906.900000	1.002206	0.009100
5906.910000	1.007304	0.009142
5906.920000	0.997754	0.009067
5906.930000	0.989044	0.009002
5906.940000	0.999536	0.009070
5906.950000	0.998535	0.009067
5906.960000	0.994232	0.009063
5906.970000	0.993698	0.009058
5906.980000	0.993254	0.009043
5906.990000	1.005383	0.009115
5907.000000	1.018898	0.009188
5907.010000	1.007567	0.009142
5907.020000	0.990266	0.009044
5907.030000	0.991798	0.009041
5907.040000	0.994493	0.009069
5907.050000	0.987129	0.009047
5907.060000	0.983589	0.009024
5907.070000	1.003726	0.009127
5907.080000	1.012823	0.009191
5907.090000	0.988879	0.009076
5907.100000	0.991458	0.009106
5907.110000	1.005770	0.009178
5907.120000	1.006074	0.009159
5907.130000	1.011976	0.009198
5907.140000	1.011757	0.009209
5907.150000	1.001146	0.009155
5907.160000	0.995246	0.009118
5907.170000	1.000619	0.009121
5907.180000	0.992089	0.009071
5907.190000	0.981980	0.009044
5907.200000	0.993477	0.009125
5907.210000	1.003464	0.009181
5907.220000	1.003696	0.009190
5907.230000	1.008315	0.009214
5907.240000	1.007481	0.009171
5907.250000	0.995344	0.009104
5907.260000	1.000182	0.009165
5907.270000	1.010182	0.009203
5907.280000	0.997378	0.009142
5907.290000	0.987485	0.009114
5907.300000	0.995931	0.009156
5907.310000	0.999621	0.009183
5907.320000	0.998169	0.009202
5907.330000	0.992685	0.009209
5907.340000	0.981175	0.009128
5907.350000	0.990128	0.009171
5907.360000	1.010917	0.009328
5907.370000	1.005273	0.009293
5907.380000	0.987835	0.009177
5907.390000	0.981593	0.009149
5907.400000	0.991663	0.009199
5907.410000	0.998714	0.009262
5907.420000	0.991207	0.009234
5907.430000	0.991134	0.009235
5907.440000	0.997263	0.009264
5907.450000	0.993563	0.009233
5907.460000	0.996546	0.009244
5907.470000	0.993635	0.009215
5907.480000	0.994678	0.009231
5907.490000	1.006642	0.009295
5907.500000	1.007610	0.009297
5907.510000	1.003112	0.009271
5907.520000	0.991955	0.009213
5907.530000	0.992035	0.009231
5907.540000	1.011852	0.009318
5907.550000	1.011836	0.009298
5907.560000	0.996962	0.009252
5907.570000	0.991573	0.009240
5907.580000	1.007034	0.009299
5907.590000	1.006769	0.009293
5907.600000	1.000875	0.009257
5907.610000	1.009555	0.009309
5907.620000	0.994701	0.009242
5907.630000	0.988115	0.009222
5907.640000	0.997872	0.009279
5907.650000	0.999339	0.009259
5907.660000	1.011758	0.009324
5907.670000	1.011930	0.009335
5907.680000	0.999431	0.009269
5907.690000	1.000225	0.009284
5907.700000	1.008488	0.009319
5907.710000	1.013428	0.009344
5907.720000	1.017051	0.009352
5907.730000	1.002552	0.009269
5907.740000	0.988160	0.009197
5907.750000	0.998284	0.009241
5907.760000	1.010982	0.009301
5907.770000	1.012176	0.009294
5907.780000	1.003525	0.009227
5907.790000	1.005013	0.009243
5907.800000	1.008618	0.009291
5907.810000	0.997797	0.009229
5907.820000	0.994014	0.009177
5907.830000	1.009098	0.009238
5907.840000	1.004271	0.009221
5907.850000	0.981382	0.009116
5907.860000	0.983316	0.009119
5907.870000	0.998376	0.009166
5907.880000	1.004312	0.009192
5907.890000	1.005313	0.009220
5907.900000	0.992849	0.009160
5907.910000	1.004342	0.009217
5907.920000	1.024224	0.009312
5907.930000	1.008660	0.009244
5907.940000	1.001769	0.009213
5907.950000	1.000962	0.009189
5907.960000	0.991337	0.009145
5907.970000	0.989715	0.009113
5907.980000	0.990432	0.009102
5907.990000	0.999208	0.009163
5908.000000	0.998042	0.009142
5908.010000	0.996242	0.009107
5908.020000	1.009746	0.009179
5908.030000	1.009130	0.009193
5908.040000	0.999401	0.009135
5908.050000	0.993897	0.009092
5908.060000	1.001278	0.009121
5908.070000	1.005127	0.009137
5908.080000	0.996931	0.009104
5908.090000	0.996441	0.009102
5908.100000	1.008186	0.009165
5908.110000	1.011144	0.009184
5908.120000	1.004181	0.009135
5908.130000	1.001362	0.009105
5908.140000	0.995195	0.009088
5908.150000	0.994431	0.009099
5908.160000	1.001548	0.009113
5908.170000	1.002004	0.009097
5908.180000	1.002485	0.009118
5908.190000	1.001627	0.009125
5908.200000	1.004499	0.009134
5908.210000	1.004282	0.009130
5908.220000	0.995992	0.009072
5908.230000	1.002392	0.009118
5908.240000	1.010318	0.009182
5908.250000	1.010019	0.009179
5908.260000	0.994799	0.009073
5908.270000	0.977729	0.008968
5908.280000	0.984166	0.009014
5908.290000	0.989244	0.009042
5908.300000	0.994502	0.009070
5908.310000	1.000556	0.009100
5908.320000	0.999873	0.009091
5908.330000	0.997732	0.009070
5908.340000	0.997174	0.009075
5908.350000	0.995149	0.009080
5908.360000	1.006949	0.009150
5908.370000	1.014097	0.009200
5908.380000	1.012411	0.009188
5908.390000	1.011219	0.009178
5908.400000	0.998850	0.009117
5908.410000	1.004793	0.009156
5908.420000	1.006997	0.009167
5908.430000	1.004822	0.009157
5908.440000	1.007525	0.009187
5908.450000	1.008081	0.009181
5908.460000	1.003488	0.009154
5908.470000	1.002629	0.009155
5908.480000	1.012322	0.009195
5908.490000	1.015505	0.009222
5908.500000	1.000772	0.009161
5908.510000	0.995936	0.009142
5908.520000	1.001776	0.009153
5908.530000	0.996435	0.009112
5908.540000	0.995513	0.009121
5908.550000	1.005046	0.009175
5908.560000	1.010448	0.009205
5908.570000	0.999893	0.009151
5908.580000	0.998423	0.009131
5908.590000	1.004417	0.009166
5908.600000	0.999736	0.009170
5908.610000	1.002502	0.009192
5908.620000	0.993496	0.009112
5908.630000	0.983191	0.009042
5908.640000	0.999529	0.009140
5908.650000	1.012526	0.009211
5908.660000	1.008134	0.009190
5908.670000	1.003074	0.009152
5908.680000	0.998673	0.009125
5908.690000	1.002503	0.009161
5908.700000	1.007759	0.009189
5908.710000	1.002178	0.009153
5908.720000	0.997419	0.009115
5908.730000	1.006097	0.009172
5908.740000	1.003778	0.009190
5908.750000	0.997549	0.009163
5908.760000	0.998244	0.009154
5908.770000	0.992650	0.009100
5908.780000	0.996863	0.009118
5908.790000	1.008751	0.009214
5908.800000	1.009963	0.009231
5908.810000	1.004821	0.009190
5908.820000	1.009456	0.009218
5908.830000	1.021073	0.009289
5908.840000	1.004297	0.009197
5908.850000	0.990070	0.009134
5908.860000	0.994771	0.009137
5908.870000	0.997869	0.009126
5908.880000	1.002360	0.009166
5908.890000	0.999497	0.009152
5908.900000	0.999758	0.009152
5908.910000	0.998694	0.009153
5908.920000	0.994776	0.009122
5908.930000	0.986959	0.009059
5908.940000	0.991632	0.009084
5908.950000	1.010012	0.009209
5908.960000	1.005647	0.009193
5908.970000	0.998715	0.009141
5908.980000	1.006145	0.009168
5908.990000	1.011992	0.009203
5909.000000	0.997519	0.009127
5909.010000	0.987872	0.009079
5909.020000	0.999213	0.009139
5909.030000	1.010203	0.009167
5909.040000	1.008920	0.009153
5909.050000	1.010561	0.009171
5909.060000	1.009730	0.009160
5909.070000	0.990390	0.009046
5909.080000	0.988956	0.009028
5909.090000	1.008047	0.009130
5909.100000	1.004457	0.009110
5909.110000	0.994694	0.009061
5909.120000	0.999696	0.009107
5909.130000	0.997575	0.009071
5909.140000	0.992867	0.009021
5909.150000	1.001230	0.009088
5909.160000	1.008518	0.009145
5909.170000	1.001213	0.009089
5909.180000	0.991477	0.009006
5909.190000	0.994315	0.009027
5909.200000	1.007274	0.009125
5909.210000	1.000593	0.009097
5909.220000	0.993562	0.009043
5909.230000	1.002916	0.009068
5909.240000	1.012995	0.009120
5909.250000	1.005038	0.009087
5909.260000	0.994308	0.009031
5909.270000	0.998642	0.009066
5909.280000	1.002733	0.009105
5909.290000	0.998854	0.009084
5909.300000	0.988360	0.009004
5909.310000	0.991921	0.009018
5909.320000	1.000743	0.009074
5909.330000	1.002769	0.009078
5909.340000	1.009935	0.009118
5909.350000	1.014659	0.009164
5909.360000	1.005103	0.009120
5909.370000	0.997638	0.009057
5909.380000	0.999454	0.009055
5909.390000	1.015499	0.009161
5909.400000	1.009195	0.009138
5909.410000	0.994577	0.009059
5909.420000	1.002164	0.009079
5909.430000	1.007063	0.009081
5909.440000	0.999258	0.009052
5909.450000	0.992962	0.009028
5909.460000	1.008311	0.009102
5909.470000	1.011074	0.009112
5909.480000	0.995044	0.009015
5909.490000	0.992454	0.008996
5909.500000	0.998522	0.009028
5909.510000	1.000452	0.009046
5909.520000	1.000873	0.009055
5909.530000	0.996450	0.009027
5909.540000	0.995069	0.009021
5909.550000	1.005993	0.009079
5909.560000	1.007718	0.009093
5909.570000	0.997041	0.009024
5909.580000	1.002179	0.009047
5909.590000	1.006939	0.009093
5909.600000	0.997922	0.009042
5909.610000	0.994115	0.009015
5909.620000	0.991123	0.008997
5909.630000	0.989872	0.008971
5909.640000	0.999402	0.009022
5909.650000	0.999238	0.009035
5909.660000	0.980763	0.008949
5909.670000	0.984179	0.008960
5909.680000	1.007554	0.009071
5909.690000	1.008361	0.009081
5909.700000	0.990223	0.008996
5909.710000	0.996330	0.009043
5909.720000	1.008148	0.009115
5909.730000	1.000087	0.009059
5909.740000	0.991041	0.009019
5909.750000	0.990435	0.009022
5909.760000	0.998332	0.009041
5909.770000	1.005555	0.009076
5909.780000	1.001336	0.009060
5909.790000	1.004674	0.009076
5909.800000	1.006087	0.009097
5909.810000	1.001639	0.009074
5909.820000	0.997954	0.009045
5909.830000	0.992141	0.009021
5909.840000	0.998791	0.009074
5909.850000	1.006122	0.009107
5909.860000	0.991854	0.009016
5909.870000	0.990339	0.009033
5909.880000	1.008566	0.009134
5909.890000	1.004785	0.009089
5909.900000	1.000425	0.009074
5909.910000	1.003703	0.009105
5909.920000	0.994612	0.009058
5909.930000	0.989375	0.009024
5909.940000	0.997553	0.009046
5909.950000	1.005578	0.009094
5909.960000	1.007983	0.009126
5909.970000	1.002210	0.009092
5909.980000	1.003682	0.009100
5909.990000	1.002805	0.009095
5910.000000	0.999720	0.009087
5910.010000	1.003561	0.009111
5910.020000	1.003336	0.009105
5910.030000	1.000928	0.009088
5910.040000	0.997448	0.009060
5910.050000	0.996460	0.009078
5910.060000	0.999862	0.009106
5910.070000	1.004632	0.009108
5910.080000	1.011847	0.009158
5910.090000	1.013440	0.009176
5910.100000	1.009307	0.009158
5910.110000	1.003103	0.009125
5910.120000	0.997785	0.009088
5910.130000	0.996900	0.009095
5910.140000	0.992896	0.009076
5910.150000	0.995331	0.009083
5910.160000	1.002455	0.009115
5910.170000	1.007733	0.009137
5910.180000	1.005346	0.009122
5910.190000	0.999170	0.009087
5910.200000	0.997122	0.009103
5910.210000	0.996051	0.009110
5910.220000	1.000069	0.009106
5910.230000	1.009993	0.009153
5910.240000	1.011175	0.009163
5910.250000	1.005396	0.009136
5910.260000	1.002960	0.009117
5910.270000	1.001401	0.009097
5910.280000	1.002063	0.009120
5910.290000	0.997958	0.009110
5910.300000	0.992471	0.009067
5910.310000	1.001528	0.009112
5910.320000	1.004224	0.009122
5910.330000	1.001596	0.009104
5910.340000	0.996994	0.009097
5910.350000	0.992985	0.009097
5910.360000	0.992881	0.009078
5910.370000	1.001605	0.009116
5910.380000	1.010749	0.009187
5910.390000	1.010471	0.009194
5910.400000	1.004391	0.009168
5910.410000	0.995434	0.009128
5910.420000	0.989149	0.009090
5910.430000	0.996964	0.009182
5910.440000	1.008357	0.009278
5910.450000	1.010981	0.009287
5910.460000	1.005975	0.009296
5910.470000	1.015459	0.009390
5910.480000	1.011113	0.009395
5910.490000	0.998547	0.009345
5910.500000	1.005700	0.009382
5910.510000	1.011556	0.009443
5910.520000	1.007480	0.009452
5910.530000	1.009283	0.009473
5910.540000	1.015797	0.009528
5910.550000	1.009265	0.009507
5910.560000	0.995382	0.009454
5910.570000	0.995926	0.009467
5910.580000	1.009124	0.009546
5910.590000	1.012474	0.009569
5910.600000	1.006190	0.009538
5910.610000	1.002874	0.009514
5910.620000	1.001036	0.009514
5910.630000	1.010026	0.009590
5910.640000	1.015430	0.009634
5910.650000	1.000832	0.009543
5910.660000	0.998317	0.009506
5910.670000	1.001627	0.009515
5910.680000	1.005556	0.009563
5910.690000	1.007397	0.009609
5910.700000	1.000935	0.009574
5910.710000	0.998021	0.009517
5910.720000	1.002593	0.009537
5910.730000	1.008891	0.009598
5910.740000	1.001214	0.009538
5910.750000	0.988977	0.009453
5910.760000	0.979564	0.009392
5910.770000	0.981579	0.009395
5910.780000	1.000492	0.009516
5910.790000	1.019274	0.009608
5910.800000	1.014453	0.009548
5910.810000	0.998297	0.009460
5910.820000	0.995336	0.009452
5910.830000	1.004049	0.009495
5910.840000	1.012314	0.009536
5910.850000	1.003553	0.009479
5910.860000	0.992707	0.009402
5910.870000	0.998412	0.009422
5910.880000	1.008263	0.009472
5910.890000	1.016603	0.009504
5910.900000	1.005132	0.009410
5910.910000	0.986209	0.009302
5910.920000	0.986316	0.009311
5910.930000	0.990585	0.009334
5910.940000	0.986592	0.009284
5910.950000	0.987246	0.009266
5910.960000	0.988246	0.009263
5910.970000	0.995176	0.009287
5910.980000	0.997909	0.009308
5910.990000	0.992770	0.009262
5911.000000	0.991144	0.009223
5911.010000	0.994301	0.009249
5911.020000	0.997528	0.009263
5911.030000	1.000560	0.009268
5911.040000	1.003968	0.009293
5911.050000	0.993779	0.009245
5911.060000	0.983032	0.009169
5911.070000	0.996207	0.009227
5911.080000	1.005777	0.009290
5911.090000	1.003135	0.009265
5911.100000	1.001046	0.009227
5911.110000	1.002571	0.009221
5911.120000	1.005763	0.009235
5911.130000	1.000096	0.009190
5911.140000	1.000096	0.009178
5911.150000	1.005198	0.009188
5911.160000	1.004429	0.009161
5911.170000	1.000477	0.009123
5911.180000	0.996377	0.009091
5911.190000	0.995667	0.009076
5911.200000	1.005781	0.009113
5911.210000	1.003281	0.009100
5911.220000	0.990288	0.009032
5911.230000	0.990486	0.009027
5911.240000	0.997380	0.009063
5911.250000	0.999955	0.009075
5911.260000	1.002174	0.009067
5911.270000	1.009574	0.009088
5911.280000	1.005049	0.009081
5911.290000	0.992459	0.009026
5911.300000	0.998016	0.009049
5911.310000	1.004309	0.009079
5911.320000	0.999647	0.009045
5911.330000	1.001994	0.009067
5911.340000	1.002529	0.009071
5911.350000	0.995994	0.009020
5911.360000	0.996235	0.009026
5911.370000	1.001897	0.009059
5911.380000	1.003177	0.009051
5911.390000	0.999345	0.009028
5911.400000	0.998802	0.009033
5911.410000	0.995780	0.009020
5911.420000	0.998906	0.009040
5911.430000	1.004584	0.009072
5911.440000	1.004545	0.009062
5911.450000	1.006540	0.009084
5911.460000	1.001176	0.009064
5911.470000	0.990505	0.008987
5911.480000	0.996569	0.009028
5911.490000	1.002497	0.009079
5911.500000	1.001011	0.009067
5911.510000	0.998566	0.009044
5911.520000	0.985471	0.008969
5911.530000	0.984866	0.008957
5911.540000	1.001552	0.009048
5911.550000	1.005751	0.009083
5911.560000	1.000177	0.009063
5911.570000	0.991549	0.009012
5911.580000	0.993017	0.009029
5911.590000	1.001362	0.009086
5911.600000	1.004980	0.009099
5911.610000	1.005746	0.009090
5911.620000	0.996272	0.009037
5911.630000	0.992593	0.009021
5911.640000	0.994532	0.009023
5911.650000	0.991777	0.009010
5911.660000	0.998947	0.009056
5911.670000	1.005915	0.009087
5911.680000	1.004728	0.009088
5911.690000	0.996652	0.009042
5911.700000	1.000381	0.009044
5911.710000	1.006421	0.009072
5911.720000	1.005867	0.009079
5911.730000	1.006301	0.009107
5911.740000	1.006391	0.009105
5911.750000	1.005861	0.009090
5911.760000	1.003238	0.009072
5911.770000	1.002842	0.009074
5911.780000	1.003855	0.009098
5911.790000	1.003884	0.009096
5911.800000	1.005193	0.009099
5911.810000	1.004228	0.009094
5911.820000	1.004080	0.009091
5911.830000	1.003901	0.009105
5911.840000	1.004356	0.009087
5911.850000	1.001934	0.009052
5911.860000	1.001572	0.009068
5911.870000	0.996984	0.009053
5911.880000	0.991208	0.009017
5911.890000	0.995609	0.009043
5911.900000	0.997100	0.009051
5911.910000	0.990988	0.009018
5911.920000	0.995285	0.009041
5911.930000	1.008546	0.009119
5911.940000	1.008466	0.009130
5911.950000	0.993046	0.009038
5911.960000	0.988565	0.009008
5911.970000	0.999958	0.009066
5911.980000	1.007384	0.009092
5911.990000	1.000100	0.009058
5912.000000	0.988753	0.009004
5912.010000	0.986477	0.008985
5912.020000	1.001961	0.009078
5912.030000	1.007009	0.009108
5912.040000	0.986407	0.008979
5912.050000	0.981038	0.008945
5912.060000	1.001041	0.009060
5912.070000	1.007717	0.009106
5912.080000	1.006129	0.009107
5912.090000	1.001786	0.009078
5912.100000	0.990232	0.009001
5912.110000	0.995056	0.009012
5912.120000	1.009056	0.009090
5912.130000	1.012159	0.009117
5912.140000	1.005111	0.009082
5912.150000	0.998980	0.009040
5912.160000	1.000218	0.009036
5912.170000	1.002184	0.009048
5912.180000	1.000414	0.009038
5912.190000	0.994140	0.008998
5912.200000	0.990223	0.008980
5912.210000	0.994856	0.009020
5912.220000	1.000794	0.009065
5912.230000	0.999282	0.009053
5912.240000	0.999077	0.009040
5912.250000	1.007605	0.009082
5912.260000	1.011299	0.009101
5912.270000	1.000199	0.009045
5912.280000	0.993509	0.009021
5912.290000	0.999268	0.009065
5912.300000	1.003461	0.009082
5912.310000	0.997823	0.009034
5912.320000	0.997827	0.009030
5912.330000	0.999384	0.009053
5912.340000	0.990942	0.009024
5912.350000	0.993130	0.009026
5912.360000	1.006357	0.009085
5912.370000	1.004293	0.009083
5912.380000	0.996049	0.009035
5912.390000	0.999725	0.009042
5912.400000	1.009735	0.009112
5912.410000	1.003932	0.009095
5912.420000	0.992776	0.009022
5912.430000	1.001157	0.009055
5912.440000	1.001756	0.009067
5912.450000	0.992517	0.009017
5912.460000	0.995053	0.009034
5912.470000	1.003976	0.009098
5912.480000	0.996381	0.009048
5912.490000	0.985664	0.008981
5912.500000	0.989123	0.009008
5912.510000	0.999522	0.009056
5912.520000	1.002160	0.009079
5912.530000	1.003256	0.009096
5912.540000	1.004247	0.009085
5912.550000	1.005120	0.009091
5912.560000	1.010224	0.009142
5912.570000	1.000038	0.009090
5912.580000	0.993197	0.009045
5912.590000	1.004175	0.009115
5912.600000	1.002448	0.009119
5912.610000	0.995111	0.009084
5912.620000	1.003488	0.009130
5912.630000	1.007079	0.009144
5912.640000	0.997398	0.009090
5912.650000	0.997459	0.009099
5912.660000	1.008005	0.009163
5912.670000	1.012835	0.009178
5912.680000	1.010173	0.009157
5912.690000	1.009864	0.009169
5912.700000	1.010946	0.009184
5912.710000	1.007819	0.009146
5912.720000	1.004085	0.009118
5912.730000	1.002105	0.009121
5912.740000	0.995557	0.009096
5912.750000	0.996235	0.009102
5912.760000	0.998056	0.009117
5912.770000	0.994939	0.009113
5912.780000	0.998217	0.009138
5912.790000	1.002965	0.009172
5912.800000	1.002346	0.009163
5912.810000	1.004806	0.009164
5912.820000	1.007251	0.009189
5912.830000	1.001343	0.009188
5912.840000	0.994479	0.009154
5912.850000	1.001158	0.009162
5912.860000	1.008169	0.009201
5912.870000	1.009273	0.009219
5912.880000	1.005880	0.009186
5912.890000	1.001026	0.009162
5912.900000	0.999976	0.009178
5912.910000	1.000663	0.009183
5912.920000	1.003898	0.009193
5912.930000	1.004890	0.009196
5912.940000	0.995539	0.009140
5912.950000	0.996044	0.009148
5912.960000	1.010242	0.009219
5912.970000	1.012908	0.009224
5912.980000	1.000342	0.009158
5912.990000	0.990351	0.009098
5913.000000	0.992666	0.009097
5913.010000	0.997253	0.009125
5913.020000	1.000498	0.009159
5913.030000	1.003994	0.009188
5913.040000	1.002868	0.009182
5913.050000	0.999996	0.009161
5913.060000	0.999625	0.009143
5913.070000	1.003720	0.009147
5913.080000	1.003130	0.009146
5913.090000	1.006015	0.009166
5913.100000	1.002058	0.009132
5913.110000	0.991106	0.009058
5913.120000	0.994777	0.009070
5913.130000	1.006035	0.009130
5913.140000	1.013060	0.009173
5913.150000	1.005531	0.009147
5913.160000	0.996231	0.009101
5913.170000	1.003196	0.009141
5913.180000	1.002755	0.009140
5913.190000	0.999833	0.009115
5913.200000	1.002581	0.009126
5913.210000	1.008993	0.009153
5913.220000	1.012622	0.009152
5913.230000	1.001878	0.009095
5913.240000	0.998056	0.009087
5913.250000	1.002652	0.009118
5913.260000	1.001692	0.009119
5913.270000	0.995961	0.009077
5913.280000	0.996767	0.009056
5913.290000	1.001879	0.009068
5913.300000	0.997424	0.009060
5913.310000	0.994256	0.009064
5913.320000	0.998820	0.009082
5913.330000	1.002231	0.009091
5913.340000	0.998762	0.009070
5913.350000	1.003519	0.009110
5913.360000	1.008630	0.009148
5913.370000	1.009303	0.009140
5913.380000	1.008052	0.009128
5913.390000	0.992853	0.009048
5913.400000	0.981232	0.008985
5913.410000	0.985194	0.009005
5913.420000	0.988724	0.009017
5913.430000	0.995187	0.009041
5913.440000	1.006232	0.009105
5913.450000	1.003096	0.009102
5913.460000	0.991934	0.009039
5913.470000	0.985720	0.008999
5913.480000	0.987864	0.009009
5913.490000	0.996327	0.009040
5913.500000	1.003634	0.009073
5913.510000	0.999349	0.009051
5913.520000	0.991796	0.009011
5913.530000	0.992795	0.009025
5913.540000	0.996736	0.009041
5913.550000	0.997185	0.009037
5913.560000	0.998384	0.009050
5913.570000	0.999359	0.009055
5913.580000	0.991872	0.009000
5913.590000	0.987702	0.008988
5913.600000	0.995240	0.009044
5913.610000	1.000631	0.009055
5913.620000	0.994510	0.009009
5913.630000	0.990386	0.008990
5913.640000	0.997411	0.009027
5913.650000	0.999136	0.009039
5913.660000	0.993021	0.009025
5913.670000	0.998762	0.009059
5913.680000	1.009038	0.009095
5913.690000	1.006228	0.009082
5913.700000	1.003294	0.009076
5913.710000	1.000675	0.009042
5913.720000	0.993924	0.009000
5913.730000	0.994889	0.009016
5913.740000	0.998096	0.009040
5913.750000	0.992614	0.009028
5913.760000	0.989588	0.009021
5913.770000	0.992385	0.009017
5913.780000	0.993196	0.009008
5913.790000	0.999693	0.009056
5913.800000	1.003077	0.009073
5913.810000	0.997631	0.009023
5913.820000	0.992608	0.009001
5913.830000	0.991679	0.009020
5913.840000	0.996790	0.009052
5913.850000	1.005448	0.009094
5913.860000	1.009619	0.009116
5913.870000	1.007859	0.009103
5913.880000	0.999552	0.009045
5913.890000	0.990420	0.008990
5913.900000	0.991119	0.009004
5913.910000	0.999869	0.009064
5913.920000	1.004685	0.009094
5913.930000	0.992139	0.009028
5913.940000	0.989962	0.009025
5913.950000	1.008355	0.009125
5913.960000	1.008689	0.009116
5913.970000	0.996460	0.009051
5913.980000	0.994058	0.009051
5913.990000	1.001175	0.009105
5914.000000	1.006949	0.009135
5914.010000	1.000798	0.009090
5914.020000	0.996040	0.009079
5914.030000	0.995772	0.009092
5914.040000	0.993805	0.009073
5914.050000	0.991918	0.009061
5914.060000	0.992113	0.009064
5914.070000	0.994734	0.009074
5914.080000	0.998779	0.009094
5914.090000	0.996270	0.009078
5914.100000	0.989804	0.009048
5914.110000	0.992036	0.009066
5914.120000	1.002285	0.009123
5914.130000	1.009813	0.009166
5914.140000	1.008915	0.009158
5914.150000	1.003425	0.009130
5914.160000	1.001502	0.009116
5914.170000	1.003517	0.009106
5914.180000	1.009145	0.009124
5914.190000	1.014020	0.009164
5914.200000	1.015043	0.009184
5914.210000	1.005753	0.009119
5914.220000	0.997488	0.009066
5914.230000	1.003047	0.009116
5914.240000	1.008035	0.009150
5914.250000	1.001692	0.009101
5914.260000	0.993609	0.009059
5914.270000	1.003801	0.009121
5914.280000	1.019208	0.009202
5914.290000	1.011370	0.009146
5914.300000	1.001265	0.009076
5914.310000	1.012851	0.009151
5914.320000	1.012554	0.009165
5914.330000	0.997636	0.009088
5914.340000	1.001720	0.009119
5914.350000	1.011536	0.009172
5914.360000	1.010888	0.009152
5914.370000	1.001083	0.009104
5914.380000	0.995474	0.009091
5914.390000	0.994533	0.009079
5914.400000	0.989132	0.009036
5914.410000	0.986546	0.009020
5914.420000	0.991485	0.009051
5914.430000	0.999351	0.009100
5914.440000	1.005414	0.009148
5914.450000	1.003635	0.009146
5914.460000	0.995838	0.009095
5914.470000	0.992701	0.009081
5914.480000	0.998858	0.009137
5914.490000	1.006433	0.009191
5914.500000	1.007945	0.009175
5914.510000	1.002101	0.009139
5914.520000	0.999484	0.009164
5914.530000	1.008159	0.009245
5914.540000	1.013847	0.009283
5914.550000	1.004596	0.009239
5914.560000	0.993319	0.009214
5914.570000	0.994083	0.009285
5914.580000	1.002106	0.009412
5914.590000	1.006211	0.009530
5914.600000	1.006679	0.009625
5914.610000	1.000401	0.009638
5914.620000	0.993554	0.009647
5914.630000	1.002213	0.009858
5914.640000	1.007793	0.010063
5914.650000	0.990432	0.010016
5914.660000	0.986892	0.010073
5914.670000	1.004128	0.010312
5914.680000	1.012138	0.010447
5914.690000	1.008004	0.010493
5914.700000	0.997326	0.010537
5914.710000	0.991754	0.010625
5914.720000	0.992778	0.010660
5914.730000	0.993268	0.010674
5914.740000	0.988253	0.010715
5914.750000	0.989987	0.010806
5914.760000	0.993123	0.010883
5914.770000	0.991009	0.010972
5914.780000	0.991376	0.011004
5914.790000	0.990261	0.010909
5914.800000	0.990109	0.010900
5914.810000	1.000084	0.011066
5914.820000	1.008677	0.011191
5914.830000	1.002422	0.011129
5914.840000	0.994031	0.011059
5914.850000	0.991155	0.011030
5914.860000	0.985959	0.010998
5914.870000	0.977682	0.010966
5914.880000	0.976834	0.010969
5914.890000	0.995450	0.011115
5914.900000	1.005047	0.011188
5914.910000	0.993404	0.011075
5914.920000	0.994161	0.011085
5914.930000	1.002086	0.011214
5914.940000	1.000792	0.011220
5914.950000	0.989442	0.011080
5914.960000	0.985082	0.011014
5914.970000	1.001961	0.011152
5914.980000	1.008562	0.011176
5914.990000	0.995037	0.011042
5915.000000	0.990619	0.011009
5915.010000	0.998748	0.011022
5915.020000	1.004399	0.010988
5915.030000	0.998190	0.010936
5915.040000	0.993041	0.010907
5915.050000	0.994333	0.010883
5915.060000	0.994138	0.010858
5915.070000	0.996353	0.010807
5915.080000	0.999233	0.010741
5915.090000	1.000056	0.010700
5915.100000	1.002080	0.010692
5915.110000	1.008364	0.010691
5915.120000	1.007969	0.010612
5915.130000	0.999215	0.010491
5915.140000	0.996844	0.010436
5915.150000	1.001537	0.010454
5915.160000	1.002596	0.010455
5915.170000	0.997797	0.010370
5915.180000	0.996428	0.010285
5915.190000	1.004568	0.010283
5915.200000	1.006206	0.010275
5915.210000	0.993616	0.010198
5915.220000	0.989101	0.010142
5915.230000	1.000453	0.010143
5915.240000	1.011815	0.010157
5915.250000	1.017696	0.010202
5915.260000	1.013510	0.010175
5915.270000	0.999492	0.010005
5915.280000	0.991921	0.009882
5915.290000	0.990797	0.009838
5915.300000	0.991424	0.009783
5915.310000	0.996931	0.009751
5915.320000	1.006505	0.009746
5915.330000	1.007818	0.009682
5915.340000	1.000701	0.009566
5915.350000	1.003785	0.009519
5915.360000	1.008158	0.009504
5915.370000	1.003148	0.009434
5915.380000	1.000855	0.009369
5915.390000	1.008361	0.009372
5915.400000	1.016143	0.009368
5915.410000	1.011109	0.009298
5915.420000	1.001667	0.009241
5915.430000	1.000275	0.009228
5915.440000	1.001461	0.009202
5915.450000	1.002078	0.009187
5915.460000	1.009766	0.009242
5915.470000	1.012891	0.009273
5915.480000	1.001504	0.009200
5915.490000	0.988254	0.009110
5915.500000	0.990406	0.009112
5915.510000	1.007112	0.009192
5915.520000	1.016305	0.009228
5915.530000	1.008136	0.009188
5915.540000	0.997800	0.009147
5915.550000	0.995518	0.009134
5915.560000	0.999033	0.009131
5915.570000	1.002967	0.009136
5915.580000	1.006935	0.009160
5915.590000	1.018104	0.009241
5915.600000	1.024117	0.009294
5915.610000	1.011085	0.009210
5915.620000	0.997399	0.009097
5915.630000	0.999703	0.009099
5915.640000	1.004061	0.009146
5915.650000	1.005226	0.009164
5915.660000	1.007874	0.009174
5915.670000	1.003557	0.009148
5915.680000	0.996403	0.009107
5915.690000	0.997701	0.009117
5915.700000	0.999823	0.009124
5915.710000	0.997804	0.009084
5915.720000	0.995908	0.009062
5915.730000	0.994894	0.009081
5915.740000	1.003585	0.009141
5915.750000	1.017903	0.009203
5915.760000	1.011505	0.009162
5915.770000	0.994648	0.009071
5915.780000	0.993161	0.009072
5915.790000	0.997794	0.009115
5915.800000	0.999794	0.009118
5915.810000	0.999879	0.009094
5915.820000	0.992166	0.009050
5915.830000	0.981992	0.009006
5915.840000	0.985141	0.009025
5915.850000	0.999100	0.009103
5915.860000	1.001695	0.009121
5915.870000	0.997373	0.009093
5915.880000	1.008178	0.009151
5915.890000	1.015611	0.009197
5915.900000	1.001653	0.009105
5915.910000	0.993982	0.009039
5915.920000	1.000985	0.009079
5915.930000	1.001312	0.009095
5915.940000	1.000379	0.009091
5915.950000	1.008319	0.009139
5915.960000	1.009530	0.009146
5915.970000	0.999497	0.009084
5915.980000	0.995156	0.009070
5915.990000	1.000233	0.009113
5916.000000	1.002578	0.009117
